TimeStamp,Delta_TP9,Delta_AF7,Delta_AF8,Delta_TP10,Theta_TP9,Theta_AF7,Theta_AF8,Theta_TP10,Alpha_TP9,Alpha_AF7,Alpha_AF8,Alpha_TP10,Beta_TP9,Beta_AF7,Beta_AF8,Beta_TP10,Gamma_TP9,Gamma_AF7,Gamma_AF8,Gamma_TP10,RAW_TP9,RAW_AF7,RAW_AF8,RAW_TP10,AUX_RIGHT,Accelerometer_X,Accelerometer_Y,Accelerometer_Z,Gyro_X,Gyro_Y,Gyro_Z,HeadBandOn,HSI_TP9,HSI_AF7,HSI_AF8,HSI_TP10,Battery,Elements
2023-09-04 18:05:48.742,,,,,,,,,,,,,,,,,,,,,,,,,,,,,,,,,,,,,,/muse/event/connected Muse-D424
2023-09-04 18:05:48.804,,,,,,,,,,,,,,,,,,,,,,,,,,,,,,,,,,,,,,/muse/elements/blink
2023-09-04 18:05:48.809,,,,,,,,,,,,,,,,,,,,,,,,,,,,,,,,,,,,,,/muse/elements/blink
2023-09-04 18:05:48.813,,,,,,,,,,,,,,,,,,,,,,,,,,,,,,,,,,,,,,/muse/elements/blink
2023-09-04 18:05:48.817,,,,,,,,,,,,,,,,,,,,,,,,,,,,,,,,,,,,,,/muse/elements/blink
2023-09-04 18:05:48.844,,,,,,,,,,,,,,,,,,,,,,,,,,,,,,,,,,,,,,/muse/elements/blink
2023-09-04 18:05:49.212,,,,,,,,,,,,,,,,,,,,,,,,,,,,,,,,,,,,,,/muse/elements/blink
2023-09-04 18:05:49.745,1.256594575572919,0.8746920341293046,0.9116582978624624,1.106975708819994,1.396213097918963,-0.0344109528721832,0.3857771505039157,0.6797924084635172,1.382228685744072,0.4768348404929548,0.2803757369454829,1.032869450846518,1.165015788257837,0.2325958435674347,0.2370384953268241,1.126912439304344,0.8258513003924901,0.1303287498166237,-0.01141019722081475,0.7387043575742047,1608.901098901099,906.5934065934066,774.0293040293041,934.3956043956044,856.2271062271062,-0.290039,0.045166,0.937744,-0.448608,-14.684448,2.011261,1,4,1,1,2,70.000000
2023-09-04 18:05:50.107,,,,,,,,,,,,,,,,,,,,,,,,,,,,,,,,,,,,,,/muse/elements/blink
2023-09-04 18:05:50.436,,,,,,,,,,,,,,,,,,,,,,,,,,,,,,,,,,,,,,/muse/elements/blink
2023-09-04 18:05:50.612,,,,,,,,,,,,,,,,,,,,,,,,,,,,,,,,,,,,,,/muse/elements/blink
2023-09-04 18:05:50.743,1.256594575572919,0.8746920341293046,0.8701930252526958,1.106975708819994,1.396213097918963,-0.0344109528721832,0.4389007912593846,0.6797924084635172,1.382228685744072,0.4768348404929548,0.4749189885390357,1.032869450846518,1.165015788257837,0.2325958435674347,0.08770622009053328,1.126912439304344,0.8258513003924901,0.1303287498166237,-0.1384310668486584,0.7387043575742047,1522.271062271062,896.5201465201466,784.9084249084249,915.4578754578755,934.3956043956044,-0.377136,-0.193176,0.890564,-0.971985,6.691742,-4.493561,1,2,1,1,2,70.000000
2023-09-04 18:05:51.049,,,,,,,,,,,,,,,,,,,,,,,,,,,,,,,,,,,,,,/muse/elements/blink
2023-09-04 18:05:51.747,1.256594575572919,0.8746920341293046,0.2821725130883868,1.106975708819994,1.396213097918963,-0.0344109528721832,0.1611083125734384,0.6797924084635172,1.382228685744072,0.4768348404929548,0.3740759051655238,1.032869450846518,1.165015788257837,0.2325958435674347,0.1942390308592969,1.126912439304344,0.8258513003924901,0.1303287498166237,-0.1145807610010072,0.7387043575742047,1422.344322344322,572.5641025641025,786.1172161172161,874.7619047619048,800.6227106227107,-0.441650,-0.189697,0.865906,-3.446808,-4.015045,-11.663818,1,4,1,1,2,70.000000
2023-09-04 18:05:51.847,,,,,,,,,,,,,,,,,,,,,,,,,,,,,,,,,,,,,,/muse/elements/blink
2023-09-04 18:05:52.358,,,,,,,,,,,,,,,,,,,,,,,,,,,,,,,,,,,,,,/muse/elements/blink
2023-09-04 18:05:52.731,,,,,,,,,,,,,,,,,,,,,,,,,,,,,,,,,,,,,,/muse/elements/blink
2023-09-04 18:05:52.731,,,,,,,,,,,,,,,,,,,,,,,,,,,,,,,,,,,,,,/muse/elements/jaw_clench
2023-09-04 18:05:52.743,1.256594575572919,0.8746920341293046,-0.2924559609091587,1.248264406155826,1.396213097918963,-0.0344109528721832,-0.2886518011101668,0.7297805987433243,1.382228685744072,0.4768348404929548,0.2267611287296412,0.9722630553347998,1.165015788257837,0.2325958435674347,0.1934750235434951,0.8712974768508427,0.8258513003924901,0.1303287498166237,-0.03481573317781458,0.5606967332005262,1640.732600732601,994.0293040293041,787.3260073260074,971.8681318681319,782.4908424908425,-0.317871,-0.113281,0.926270,0.852356,-7.065582,-8.762817,1,2,1,1,1,70.000000
2023-09-04 18:05:53.237,,,,,,,,,,,,,,,,,,,,,,,,,,,,,,,,,,,,,,/muse/elements/blink
2023-09-04 18:05:53.676,,,,,,,,,,,,,,,,,,,,,,,,,,,,,,,,,,,,,,/muse/elements/jaw_clench
2023-09-04 18:05:53.743,1.256594575572919,0.8746920341293046,-0.1374221396442782,1.327608757368527,1.396213097918963,-0.0344109528721832,-0.3687223719774734,0.8253944615946914,1.382228685744072,0.4768348404929548,0.174277232910611,0.9558908035817896,1.165015788257837,0.2325958435674347,0.0007975884533062314,0.856476620288578,0.8258513003924901,0.1303287498166237,-0.09819271259942898,0.4695002138346669,1534.761904761905,862.2710622710623,791.7582417582418,981.5384615384615,797.3992673992674,-0.257751,-0.159363,0.938110,2.534637,-5.637512,-0.687866,1,1,1,1,1,70.000000
2023-09-04 18:05:53.765,,,,,,,,,,,,,,,,,,,,,,,,,,,,,,,,,,,,,,/muse/elements/blink
2023-09-04 18:05:53.853,,,,,,,,,,,,,,,,,,,,,,,,,,,,,,,,,,,,,,/muse/elements/jaw_clench
2023-09-04 18:05:53.941,,,,,,,,,,,,,,,,,,,,,,,,,,,,,,,,,,,,,,/muse/elements/blink
2023-09-04 18:05:54.562,,,,,,,,,,,,,,,,,,,,,,,,,,,,,,,,,,,,,,/muse/elements/blink
2023-09-04 18:05:54.562,,,,,,,,,,,,,,,,,,,,,,,,,,,,,,,,,,,,,,/muse/elements/jaw_clench
2023-09-04 18:05:54.746,1.256594575572919,0.8746920341293046,0.6205944180203231,0.8984985735296779,1.396213097918963,-0.0344109528721832,0.3523781439991205,0.9407097512504655,1.382228685744072,0.4768348404929548,0.4592777341490065,0.7438183994770002,1.165015788257837,0.2325958435674347,0.08121163743673952,0.9053234360387132,0.8258513003924901,0.1303287498166237,-0.07439942217982067,0.6491765899049693,1498.095238095238,905.3846153846154,782.4908424908425,967.4358974358975,920.6959706959707,-0.235413,-0.092773,0.942383,14.303131,-7.431946,-6.983337,1,1,1,1,1,70.000000
2023-09-04 18:05:54.782,,,,,,,,,,,,,,,,,,,,,,,,,,,,,,,,,,,,,,/muse/elements/blink
2023-09-04 18:05:55.176,,,,,,,,,,,,,,,,,,,,,,,,,,,,,,,,,,,,,,/muse/elements/blink
2023-09-04 18:05:55.487,,,,,,,,,,,,,,,,,,,,,,,,,,,,,,,,,,,,,,/muse/elements/jaw_clench
2023-09-04 18:05:55.599,,,,,,,,,,,,,,,,,,,,,,,,,,,,,,,,,,,,,,/muse/elements/blink
2023-09-04 18:05:55.688,,,,,,,,,,,,,,,,,,,,,,,,,,,,,,,,,,,,,,/muse/elements/jaw_clench
2023-09-04 18:05:55.743,1.256594575572919,0.8746920341293046,1.080523349444302,0.8984985735296779,1.396213097918963,-0.0344109528721832,0.6801593397265372,0.9407097512504655,1.382228685744072,0.4768348404929548,0.6702072648607758,0.7438183994770002,1.165015788257837,0.2325958435674347,0.09907432722961261,0.9053234360387132,0.8258513003924901,0.1303287498166237,-0.1942735663166008,0.6491765899049693,1515.421245421245,417.4358974358975,783.2967032967033,960.1831501831502,855.0183150183151,-0.192078,-0.204468,0.936340,4.904785,-0.702820,5.585175,1,1,1,1,1,70.000000
2023-09-04 18:05:56.110,,,,,,,,,,,,,,,,,,,,,,,,,,,,,,,,,,,,,,/muse/elements/blink
2023-09-04 18:05:56.531,,,,,,,,,,,,,,,,,,,,,,,,,,,,,,,,,,,,,,/muse/elements/jaw_clench
2023-09-04 18:05:56.621,,,,,,,,,,,,,,,,,,,,,,,,,,,,,,,,,,,,,,/muse/elements/blink
2023-09-04 18:05:56.743,1.256594575572919,0.8746920341293046,0.8114235696485536,0.7675444811959651,1.396213097918963,-0.0344109528721832,0.3001948751289352,0.2927988121022657,1.382228685744072,0.4768348404929548,0.2267048887300865,0.9173805824731422,1.165015788257837,0.2325958435674347,0.05076779167569899,0.8192326272686071,0.8258513003924901,0.1303287498166237,-0.100620319102372,0.4702008731971949,1477.545787545788,889.6703296703297,790.952380952381,964.2124542124542,880.8058608058608,-0.257568,-0.074463,0.940491,2.033691,-3.985138,-0.284119,1,1,1,1,1,70.000000
2023-09-04 18:05:57.234,,,,,,,,,,,,,,,,,,,,,,,,,,,,,,,,,,,,,,/muse/elements/jaw_clench
2023-09-04 18:05:57.410,,,,,,,,,,,,,,,,,,,,,,,,,,,,,,,,,,,,,,/muse/elements/jaw_clench
2023-09-04 18:05:57.753,1.256594575572919,0.8746920341293046,0.3669140426791512,1.038134360890773,1.396213097918963,-0.0344109528721832,0.0621454392249377,0.5470067499663417,1.382228685744072,0.4768348404929548,0.08564288990188693,0.9364673985260931,1.165015788257837,0.2325958435674347,0.1439620172277905,0.8503366098088032,0.8258513003924901,0.1303287498166237,-0.2497424274722894,0.4231151104226434,110.4029304029304,1167.692307692308,797.3992673992674,994.4322344322345,898.5347985347986,-0.274902,-0.047058,0.962646,3.536530,-0.964508,10.841370,1,4,1,1,1,70.000000
2023-09-04 18:05:58.445,,,,,,,,,,,,,,,,,,,,,,,,,,,,,,,,,,,,,,/muse/elements/blink
2023-09-04 18:05:58.743,1.256594575572919,0.8746920341293046,0.523361611801536,1.053609689276564,1.396213097918963,-0.0344109528721832,0.02921985884621725,0.53422046804391,1.382228685744072,0.4768348404929548,0.2412901713394703,0.9169982835183935,1.165015788257837,0.2325958435674347,0.2330685590395701,0.771078902305241,0.8258513003924901,0.1303287498166237,-0.2548666492172804,0.3616652757587582,1600.43956043956,892.4908424908425,795.3846153846154,965.8241758241759,827.2161172161173,-0.260254,-0.151489,0.947388,1.031799,-0.276642,-13.779755,1,4,1,1,1,70.000000
2023-09-04 18:05:59.060,,,,,,,,,,,,,,,,,,,,,,,,,,,,,,,,,,,,,,/muse/elements/jaw_clench
2023-09-04 18:05:59.239,,,,,,,,,,,,,,,,,,,,,,,,,,,,,,,,,,,,,,/muse/elements/blink
2023-09-04 18:05:59.588,,,,,,,,,,,,,,,,,,,,,,,,,,,,,,,,,,,,,,/muse/elements/jaw_clench
2023-09-04 18:05:59.743,1.256594575572919,0.8746920341293046,0.3993286910803833,0.3134537590915247,1.396213097918963,-0.0344109528721832,0.09586465515228086,0.4961766779084612,1.382228685744072,0.4768348404929548,0.2380554054293428,0.8446108701821721,1.165015788257837,0.2325958435674347,0.2250626672575111,0.859395511860698,0.8258513003924901,0.1303287498166237,-0.2374515782137948,0.3897166951807235,1295.421245421245,716.8131868131868,791.7582417582418,910.2197802197802,811.0989010989011,-0.273682,-0.184326,0.928772,-3.319702,-4.433746,4.635620,1,4,1,1,1,65.000000
2023-09-04 18:05:59.858,,,,,,,,,,,,,,,,,,,,,,,,,,,,,,,,,,,,,,/muse/elements/jaw_clench
2023-09-04 18:06:00.456,,,,,,,,,,,,,,,,,,,,,,,,,,,,,,,,,,,,,,/muse/elements/blink
2023-09-04 18:06:00.546,,,,,,,,,,,,,,,,,,,,,,,,,,,,,,,,,,,,,,/muse/elements/jaw_clench
2023-09-04 18:06:00.743,1.256594575572919,0.8746920341293046,0.3508338031356186,0.7250749594175488,1.396213097918963,-0.0344109528721832,-0.1030430551428004,0.5416156138152799,1.382228685744072,0.4768348404929548,0.1299902271506233,0.5985932036325393,1.165015788257837,0.2325958435674347,0.1175394602588851,0.8267748657927849,0.8258513003924901,0.1303287498166237,-0.2155788566848031,0.45969132393482,987.1794871794872,0,799.8168498168499,871.5384615384615,884.0293040293041,-0.265625,-0.199951,0.918152,-0.411224,-3.925323,-3.125305,1,4,1,1,1,65.000000
2023-09-04 18:06:00.875,,,,,,,,,,,,,,,,,,,,,,,,,,,,,,,,,,,,,,/muse/elements/jaw_clench
2023-09-04 18:06:01.743,1.256594575572919,0.8746920341293046,0.2450637848808433,0.6253992902326179,1.396213097918963,-0.0344109528721832,-0.0466653860383214,0.5273679386297868,1.382228685744072,0.4768348404929548,0.06903704588768048,0.781456119999043,1.165015788257837,0.2325958435674347,0.003746495449383377,0.6456494488074066,0.8258513003924901,0.1303287498166237,-0.3507441735870875,0.5317353966278257,1572.637362637363,1506.959706959707,792.1611721611722,908.2051282051282,787.7289377289378,-0.407349,0.062927,0.951782,-14.407806,1.629944,-20.942535,1,4,4,1,1,65.000000
2023-09-04 18:06:02.102,,,,,,,,,,,,,,,,,,,,,,,,,,,,,,,,,,,,,,/muse/elements/jaw_clench
2023-09-04 18:06:02.748,1.256594575572919,0.8746920341293046,0.4433817264209299,1.043360774122815,1.396213097918963,-0.0344109528721832,-0.01120388857831801,0.5872398687536766,1.382228685744072,0.4768348404929548,0.1632495660843762,0.9209405452095452,1.165015788257837,0.2325958435674347,-0.02501691677014011,0.6603577492113112,0.8258513003924901,0.1303287498166237,-0.4289582050130505,0.5485733785325568,1312.747252747253,950.5128205128206,792.5641025641025,971.4652014652015,976.7032967032967,-0.377625,0.100586,0.904785,-2.429962,-2.661743,-6.145935,1,4,4,1,1,65.000000
2023-09-04 18:06:03.331,,,,,,,,,,,,,,,,,,,,,,,,,,,,,,,,,,,,,,/muse/elements/blink
2023-09-04 18:06:03.529,,,,,,,,,,,,,,,,,,,,,,,,,,,,,,,,,,,,,,/muse/elements/blink
2023-09-04 18:06:03.688,,,,,,,,,,,,,,,,,,,,,,,,,,,,,,,,,,,,,,/muse/elements/blink
2023-09-04 18:06:03.743,1.256594575572919,0.8746920341293046,0.2013795013292836,1.245817404992743,1.396213097918963,-0.0344109528721832,-0.00908025864362734,0.5871953101865186,1.382228685744072,0.4768348404929548,0.3203002939000432,0.8426650153149209,1.165015788257837,0.2325958435674347,0.007635244856361843,0.6612765766600216,0.8258513003924901,0.1303287498166237,-0.2695317726262606,0.4566849872559551,1035.934065934066,716.007326007326,794.5787545787546,886.8498168498169,851.3919413919414,-0.329285,-0.027100,0.915039,1.286011,-5.876770,3.626251,1,4,1,1,1,65.000000
2023-09-04 18:06:04.216,,,,,,,,,,,,,,,,,,,,,,,,,,,,,,,,,,,,,,/muse/elements/blink
2023-09-04 18:06:04.742,1.256594575572919,0.8746920341293046,-0.4353724244574637,0.8323756071918127,1.396213097918963,-0.0344109528721832,-0.06660154959942965,0.3892844154953661,1.382228685744072,0.4768348404929548,0.2767166991323079,0.679681992665816,1.165015788257837,0.2325958435674347,-0.1884994659271789,0.6682464736627383,0.8258513003924901,0.1303287498166237,-0.1433313335718299,0.4565116934542421,1617.765567765568,839.7069597069598,789.3406593406594,981.5384615384615,811.0989010989011,-0.343018,-0.016541,0.921570,1.233673,-2.272949,-0.171967,1,4,1,1,1,65.000000
2023-09-04 18:06:05.743,1.256594575572919,0.8746920341293046,-0.3145004302653954,0.8325758987931823,1.396213097918963,-0.0344109528721832,-0.2060473737438279,0.2661563945752758,1.382228685744072,0.4768348404929548,-0.03493322224307996,0.5983658744344417,1.165015788257837,0.2325958435674347,-0.2147138670748788,0.6795465905292917,0.8258513003924901,0.1303287498166237,-0.2752652531631686,0.5383189076087761,1424.761904761905,879.1941391941392,789.7435897435897,936.4102564102565,801.4285714285714,-0.242432,0.013672,0.964478,9.106750,-7.955322,4.702911,1,4,1,1,1,65.000000
2023-09-04 18:06:06.059,,,,,,,,,,,,,,,,,,,,,,,,,,,,,,,,,,,,,,/muse/elements/blink
2023-09-04 18:06:06.743,1.256594575572919,0.8746920341293046,0.4868468459509432,0.4130444078480593,1.396213097918963,-0.0344109528721832,0.01045443668996233,-0.06173031876063283,1.382228685744072,0.4768348404929548,0.3566630512807803,0.2644498335055793,1.165015788257837,0.2325958435674347,-0.1352271967212757,0.6910494257391742,0.8258513003924901,0.1303287498166237,-0.3092387801197604,0.6743600057105555,1252.710622710623,740.1831501831502,794.1758241758242,912.2344322344322,861.4652014652015,-0.222473,0.028015,0.962585,1.188812,-3.185120,-0.904694,1,4,1,1,1,65.000000
2023-09-04 18:06:06.900,,,,,,,,,,,,,,,,,,,,,,,,,,,,,,,,,,,,,,/muse/elements/blink
2023-09-04 18:06:07.516,,,,,,,,,,,,,,,,,,,,,,,,,,,,,,,,,,,,,,/muse/elements/blink
2023-09-04 18:06:07.672,,,,,,,,,,,,,,,,,,,,,,,,,,,,,,,,,,,,,,/muse/elements/blink
2023-09-04 18:06:07.672,,,,,,,,,,,,,,,,,,,,,,,,,,,,,,,,,,,,,,/muse/elements/jaw_clench
2023-09-04 18:06:07.749,1.256594575572919,0.8746920341293046,0.2963438072090077,0.4130444078480593,1.396213097918963,-0.0344109528721832,-0.1209544407044929,-0.06173031876063283,1.382228685744072,0.4768348404929548,0.2338089674202671,0.2644498335055793,1.165015788257837,0.2325958435674347,-0.0184569938131559,0.6910494257391742,0.8258513003924901,0.1303287498166237,-0.2781839006806201,0.6743600057105555,1279.304029304029,1625.421245421245,790.1465201465202,913.8461538461539,830.4395604395604,0.071960,0.047058,0.994690,0.500946,-5.091705,-1.076660,1,4,1,1,1,65.000000
2023-09-04 18:06:07.979,,,,,,,,,,,,,,,,,,,,,,,,,,,,,,,,,,,,,,/muse/elements/blink
2023-09-04 18:06:08.286,,,,,,,,,,,,,,,,,,,,,,,,,,,,,,,,,,,,,,/muse/elements/blink
2023-09-04 18:06:08.742,1.256594575572919,0.8746920341293046,0.4195994711498117,0.4130444078480593,1.396213097918963,-0.0344109528721832,0.0006435096061495855,-0.06173031876063283,1.382228685744072,0.4768348404929548,0.3418479075689593,0.2644498335055793,1.165015788257837,0.2325958435674347,0.1440770300650149,0.6910494257391742,0.8258513003924901,0.1303287498166237,-0.1696545168698111,0.6743600057105555,1298.644688644689,1625.421245421245,788.1318681318681,953.7362637362637,921.9047619047619,0.004456,0.005920,0.985291,8.082428,-6.759033,-6.101074,1,2,4,1,2,65.000000
2023-09-04 18:06:08.992,,,,,,,,,,,,,,,,,,,,,,,,,,,,,,,,,,,,,,/muse/elements/blink
2023-09-04 18:06:09.170,,,,,,,,,,,,,,,,,,,,,,,,,,,,,,,,,,,,,,/muse/elements/blink
2023-09-04 18:06:09.696,,,,,,,,,,,,,,,,,,,,,,,,,,,,,,,,,,,,,,/muse/elements/blink
2023-09-04 18:06:09.753,1.256594575572919,0.8746920341293046,0.3314235635124737,0.8720488579122515,1.396213097918963,-0.0344109528721832,-0.06868298879949641,0.3720223152219736,1.382228685744072,0.4768348404929548,0.2691588936860271,0.8124339255547089,1.165015788257837,0.2325958435674347,0.0595533796637235,0.873640532761256,0.8258513003924901,0.1303287498166237,-0.241568382573562,0.5875706653616826,1266.813186813187,1625.421245421245,792.1611721611722,921.9047619047619,840.5128205128206,0.003967,-0.022888,0.983643,3.162689,-3.603821,0.463562,1,1,2,1,1,65.000000
2023-09-04 18:06:10.203,,,,,,,,,,,,,,,,,,,,,,,,,,,,,,,,,,,,,,/muse/elements/blink
2023-09-04 18:06:10.730,,,,,,,,,,,,,,,,,,,,,,,,,,,,,,,,,,,,,,/muse/elements/blink
2023-09-04 18:06:10.743,1.256594575572919,0.8746920341293046,0.3390876567377033,1.166071781812204,1.396213097918963,-0.0344109528721832,0.05180399274625432,0.6254198760107723,1.382228685744072,0.4768348404929548,0.3298990114573215,1.093070857660718,1.165015788257837,0.2325958435674347,0.04107388791513199,0.9259571546079801,0.8258513003924901,0.1303287498166237,-0.3653304968345747,0.5883926184439008,1317.582417582418,1563.369963369963,794.5787545787546,919.8901098901099,799.0109890109891,0.002441,-0.038086,0.991272,1.764526,-3.424377,1.465454,1,1,4,1,1,65.000000
2023-09-04 18:06:10.909,,,,,,,,,,,,,,,,,,,,,,,,,,,,,,,,,,,,,,/muse/elements/blink
2023-09-04 18:06:11.568,,,,,,,,,,,,,,,,,,,,,,,,,,,,,,,,,,,,,,/muse/elements/blink
2023-09-04 18:06:11.743,0.6224344562414124,0.8746920341293046,0.4353493908569792,1.056947222454829,0.4497051214491555,-0.0344109528721832,0.02161433066179711,0.6557168356565518,1.252584055812697,0.4768348404929548,0.2131691091766983,1.036023263132358,0.9244958977626873,0.2325958435674347,0.1068131332680502,0.5141707694991732,0.7436818635460369,0.1303287498166237,-0.3824704744385498,0.4788531661502228,1342.564102564103,1456.593406593407,790.5494505494506,940.0366300366301,868.3150183150184,-0.017212,-0.028320,0.984253,1.525269,-2.878571,-1.001892,1,1,4,1,1,65.000000
2023-09-04 18:06:12.245,,,,,,,,,,,,,,,,,,,,,,,,,,,,,,,,,,,,,,/muse/elements/blink
2023-09-04 18:06:12.743,0.7898370602771587,0.8746920341293046,0.632302477491842,0.6827629933489709,0.6529370604872531,-0.0344109528721832,0.1454333024048155,0.4151362491674386,1.307603606966836,0.4768348404929548,0.2854716458593374,0.787229901724707,0.9453664696591502,0.2325958435674347,0.1187269229936413,0.7409483966788358,0.8268411016092538,0.1303287498166237,-0.3098778755686018,0.6414448298599249,1171.318681318681,1459.81684981685,795.3846153846154,888.8644688644689,873.956043956044,-0.025879,-0.025208,0.983704,1.353302,-2.646790,-0.254211,1,1,2,1,1,65.000000
2023-09-04 18:06:13.363,,,,,,,,,,,,,,,,,,,,,,,,,,,,,,,,,,,,,,/muse/elements/blink
2023-09-04 18:06:13.602,,,,,,,,,,,,,,,,,,,,,,,,,,,,,,,,,,,,,,/muse/elements/blink
2023-09-04 18:06:13.745,0.6849100905677497,0.8746920341293046,0.8227928471167472,0.7100525435111029,0.5821311956264016,-0.0344109528721832,0.2961296495119231,0.500988086760228,1.086252484261494,0.4768348404929548,0.4635540905443838,0.7328536454796032,0.7328923990422449,0.2325958435674347,0.06531954895496143,0.7023304344079284,0.8407381248211535,0.1303287498166237,-0.3324531899208016,0.6031891398594332,1334.102564102564,1551.282051282051,790.1465201465202,882.8205128205128,824.3956043956044,-0.054199,0.005859,0.995178,15.095673,20.508881,28.905334,1,1,4,1,1,65.000000
2023-09-04 18:06:13.778,,,,,,,,,,,,,,,,,,,,,,,,,,,,,,,,,,,,,,/muse/elements/blink
2023-09-04 18:06:13.954,,,,,,,,,,,,,,,,,,,,,,,,,,,,,,,,,,,,,,/muse/elements/blink
2023-09-04 18:06:14.390,,,,,,,,,,,,,,,,,,,,,,,,,,,,,,,,,,,,,,/muse/elements/blink
2023-09-04 18:06:14.742,0.6849100905677497,0.8746920341293046,0.4631979013674918,0.7975626209486651,0.5821311956264016,-0.0344109528721832,0.03396345794089983,0.6376058183415368,1.086252484261494,0.4768348404929548,0.5937768621157851,0.7328536454796032,0.7328923990422449,0.2325958435674347,0.3077484481660207,0.6351277251153846,0.8407381248211535,0.1303287498166237,0.02339962511303992,0.4881340300834648,86.63003663003663,1538.791208791209,767.985347985348,989.1941391941392,818.7545787545788,-0.347107,0.024292,0.936707,6.871185,-9.405823,2.003784,1,1,2,1,1,65.000000
2023-09-04 18:06:15.510,,,,,,,,,,,,,,,,,,,,,,,,,,,,,,,,,,,,,,/muse/elements/blink
2023-09-04 18:06:15.709,,,,,,,,,,,,,,,,,,,,,,,,,,,,,,,,,,,,,,/muse/elements/blink
2023-09-04 18:06:15.745,0.6849100905677497,0.8746920341293046,0.7652924400164385,0.7975626209486651,0.5821311956264016,-0.0344109528721832,0.3821803685193601,0.6376058183415368,1.086252484261494,0.4768348404929548,0.5878594525130776,0.7328536454796032,0.7328923990422449,0.2325958435674347,0.3444495070188526,0.6351277251153846,0.8407381248211535,0.1303287498166237,0.1261778758408658,0.4881340300834648,1571.025641025641,1342.161172161172,799.8168498168499,994.4322344322345,774.4322344322345,-0.248779,0.087708,0.958313,-2.183228,1.644897,-0.328979,1,4,2,1,2,65.000000
2023-09-04 18:06:15.886,,,,,,,,,,,,,,,,,,,,,,,,,,,,,,,,,,,,,,/muse/elements/blink
2023-09-04 18:06:16.502,,,,,,,,,,,,,,,,,,,,,,,,,,,,,,,,,,,,,,/muse/elements/blink
2023-09-04 18:06:16.742,0.6849100905677497,0.8746920341293046,0.9067031928645987,0.7975626209486651,0.5821311956264016,-0.0344109528721832,0.5615633851428413,0.6376058183415368,1.086252484261494,0.4768348404929548,0.3543376054037964,0.7328536454796032,0.7328923990422449,0.2325958435674347,-0.1138085813291609,0.6351277251153846,0.8407381248211535,0.1303287498166237,-0.2280049568532295,0.4881340300834648,1344.578754578755,1309.92673992674,800.6227106227107,971.8681318681319,781.6849816849817,-0.268127,-0.016418,0.942383,2.684174,-1.263580,-8.762817,1,4,2,1,2,65.000000
2023-09-04 18:06:16.837,,,,,,,,,,,,,,,,,,,,,,,,,,,,,,,,,,,,,,/muse/elements/blink
2023-09-04 18:06:17.125,,,,,,,,,,,,,,,,,,,,,,,,,,,,,,,,,,,,,,/muse/elements/blink
2023-09-04 18:06:17.540,,,,,,,,,,,,,,,,,,,,,,,,,,,,,,,,,,,,,,/muse/elements/blink
2023-09-04 18:06:17.742,0.6849100905677497,0.8746920341293046,-0.5354808553514866,0.7975626209486651,0.5821311956264016,-0.0344109528721832,-0.8592019391997061,0.6376058183415368,1.086252484261494,0.4768348404929548,-0.1027001302249695,0.7328536454796032,0.7328923990422449,0.2325958435674347,0.1683148191337871,0.6351277251153846,0.8407381248211535,0.1303287498166237,-0.5937534663851823,0.4881340300834648,1362.307692307692,1242.637362637363,786.1172161172161,904.981684981685,1094.358974358974,-0.303711,-0.019409,0.937622,2.975769,-3.656158,-0.471039,1,2,2,1,2,65.000000
2023-09-04 18:06:17.846,,,,,,,,,,,,,,,,,,,,,,,,,,,,,,,,,,,,,,/muse/elements/blink
2023-09-04 18:06:18.753,0.3393352175404869,0.8746920341293046,-0.05387306348746033,0.3365716837358065,0.6851360041017189,-0.0344109528721832,-0.2436981662514905,0.4435092726349363,0.7851185889763742,0.4768348404929548,0.223485010303442,0.7864742809573848,0.9452264362996532,0.2325958435674347,0.1039473748879255,0.6016458116216323,0.9207608859837211,0.1303287498166237,-0.3843781888732559,0.295589868792438,833.6630036630037,1114.908424908425,792.1611721611722,771.2087912087912,721.2454212454213,-0.319092,-0.056335,0.914917,2.549591,-0.650482,1.757050,1,1,1,1,1,65.000000
2023-09-04 18:06:18.830,,,,,,,,,,,,,,,,,,,,,,,,,,,,,,,,,,,,,,/muse/elements/blink
2023-09-04 18:06:19.742,0.3199213646582276,0.8746920341293046,-0.26158126186073,0.5163274550094655,0.4265200715813908,-0.0344109528721832,-0.3865777262298239,0.6010611382051507,0.8039564662505974,0.4768348404929548,0.1015700769984215,0.8415521725269405,0.9706263986582538,0.2325958435674347,0.01535161731694047,0.6212940538472271,0.9170347448215703,0.1303287498166237,-0.2370956470506263,0.2970979614191306,1012.967032967033,31.42857142857143,786.5201465201466,807.4725274725275,797.8021978021978,-0.218262,-0.182861,0.936462,-9.607697,-14.116211,4.553375,1,1,2,1,1,65.000000
2023-09-04 18:06:19.766,,,,,,,,,,,,,,,,,,,,,,,,,,,,,,,,,,,,,,/muse/elements/blink
2023-09-04 18:06:20.289,,,,,,,,,,,,,,,,,,,,,,,,,,,,,,,,,,,,,,/muse/elements/blink
2023-09-04 18:06:20.742,0.400901002657147,0.8746920341293046,0.2229980815911601,0.7331687064844219,0.1817570812153916,-0.0344109528721832,0.02552230619492184,0.6707510005217843,0.6099454589198749,0.4768348404929548,0.2027387190131434,1.288770296269867,0.7598599729966372,0.2325958435674347,0.06333017093788683,0.9211720966332102,0.7816994610197517,0.1303287498166237,-0.2992892761520777,0.3886647458893656,1208.388278388278,1230.549450549451,786.9230769230769,814.7252747252747,948.4981684981685,-0.249329,-0.064026,0.961975,2.056122,-3.215027,-2.437439,1,1,1,1,1,65.000000
2023-09-04 18:06:20.899,,,,,,,,,,,,,,,,,,,,,,,,,,,,,,,,,,,,,,/muse/elements/blink
2023-09-04 18:06:21.742,0.400901002657147,0.8746920341293046,0.1589646633356056,0.7400596827234049,0.1817570812153916,-0.0344109528721832,-0.1359298574018428,0.9146409142810163,0.6099454589198749,0.4768348404929548,0.320190543710074,1.288770296269867,0.7598599729966372,0.2325958435674347,0.1138396108443272,1.219103985816354,0.7816994610197517,0.1303287498166237,0.0189269613851089,0.5632236360003925,556.8498168498169,1019.81684981685,792.5641025641025,736.959706959707,800.6227106227107,-0.249084,-0.081665,0.947083,-11.761017,-8.299255,-2.108459,1,4,1,1,1,65.000000
2023-09-04 18:06:22.118,,,,,,,,,,,,,,,,,,,,,,,,,,,,,,,,,,,,,,/muse/elements/blink
2023-09-04 18:06:22.403,,,,,,,,,,,,,,,,,,,,,,,,,,,,,,,,,,,,,,/muse/elements/blink
2023-09-04 18:06:22.742,0.400901002657147,0.8746920341293046,0.5713860379392335,0.7400596827234049,0.1817570812153916,-0.0344109528721832,-0.323162712651189,0.9146409142810163,0.6099454589198749,0.4768348404929548,0.2403380576363208,1.288770296269867,0.7598599729966372,0.2325958435674347,0.08628758983903111,1.219103985816354,0.7816994610197517,0.1303287498166237,-0.0985207294738467,0.5632236360003925,728.901098901099,1309.120879120879,786.5201465201466,743.4065934065934,770,-0.275391,0.035400,0.945862,2.527161,-1.517792,3.940277,1,4,4,1,1,65.000000
2023-09-04 18:06:23.517,,,,,,,,,,,,,,,,,,,,,,,,,,,,,,,,,,,,,,/muse/elements/blink
2023-09-04 18:06:23.742,0.400901002657147,0.8746920341293046,0.7260676667040269,1.060955182707102,0.1817570812153916,-0.0344109528721832,-0.04032231741879206,0.6394813538396671,0.6099454589198749,0.4768348404929548,0.3318434859818434,1.028209224687836,0.7598599729966372,0.2325958435674347,0.1685238352769182,0.5904828008334888,0.7816994610197517,0.1303287498166237,-0.1576419882770869,0.3027466448481145,936.4102564102565,1263.589743589744,798.6080586080586,801.025641025641,844.9450549450549,-0.309143,0.004150,0.970032,12.202148,-0.291595,9.734802,1,4,4,1,1,65.000000
2023-09-04 18:06:23.929,,,,,,,,,,,,,,,,,,,,,,,,,,,,,,,,,,,,,,/muse/elements/blink
2023-09-04 18:06:24.321,,,,,,,,,,,,,,,,,,,,,,,,,,,,,,,,,,,,,,/muse/elements/blink
2023-09-04 18:06:24.742,0.400901002657147,0.8746920341293046,0.4837995139517826,1.095855629699364,0.1817570812153916,-0.0344109528721832,0.1491972221683512,0.5333540752992136,0.6099454589198749,0.4768348404929548,0.3433565295907111,1.015846048020228,0.7598599729966372,0.2325958435674347,0.1448806205652191,0.6313517320858085,0.7816994610197517,0.1303287498166237,-0.1069941921927846,0.395191711828739,1158.827838827839,1515.824175824176,792.5641025641025,853.4065934065934,777.2527472527473,-0.244202,-0.030640,0.961060,1.674805,-4.224396,0.396271,1,4,4,1,1,65.000000
2023-09-04 18:06:25.742,0.400901002657147,0.8746920341293046,-0.2482949310679778,0.6259926276317896,0.1817570812153916,-0.0344109528721832,-0.03323524912546427,0.4331556601110211,0.6099454589198749,0.4768348404929548,0.2223847359202027,0.7243825169204757,0.7598599729966372,0.2325958435674347,0.02587329844581145,0.773023678431912,0.7816994610197517,0.1303287498166237,-0.07475109509954136,0.5537834043935893,427.9120879120879,989.1941391941392,800.2197802197802,684.5787545787546,705.934065934066,-0.229797,-0.084473,0.968689,3.200073,-1.532745,-1.286011,1,4,4,1,1,65.000000
2023-09-04 18:06:26.480,,,,,,,,,,,,,,,,,,,,,,,,,,,,,,,,,,,,,,/muse/elements/blink
2023-09-04 18:06:26.742,0.400901002657147,0.8746920341293046,-0.1261057292149836,0.5094880933067087,0.1817570812153916,-0.0344109528721832,0.009098688697757042,0.5601999067171104,0.6099454589198749,0.4768348404929548,0.2686895619034096,0.6560559739187498,0.7598599729966372,0.2325958435674347,-0.1890693889871265,0.6874408087517003,0.7816994610197517,0.1303287498166237,-0.287602598194988,0.5212520928545743,626.5567765567765,903.3699633699634,795.7875457875458,753.4798534798535,919.8901098901099,-0.243774,-0.051636,0.957031,2.721558,-0.463562,0.523376,1,4,4,1,1,65.000000
2023-09-04 18:06:27.594,,,,,,,,,,,,,,,,,,,,,,,,,,,,,,,,,,,,,,/muse/elements/blink
2023-09-04 18:06:27.742,0.400901002657147,0.8746920341293046,0.04827234494787459,0.5094880933067087,0.1817570812153916,-0.0344109528721832,0.1150595566816954,0.5601999067171104,0.6099454589198749,0.4768348404929548,0.1732339703816763,0.6560559739187498,0.7598599729966372,0.2325958435674347,-0.07552639712785998,0.6874408087517003,0.7816994610197517,0.1303287498166237,-0.3761228439670117,0.5212520928545743,840.9157509157509,1174.139194139194,788.9377289377289,780.0732600732601,776.8498168498169,-0.327576,-0.004028,0.944092,8.703003,-1.360779,0.919647,1,4,4,1,1,65.000000
2023-09-04 18:06:28.686,,,,,,,,,,,,,,,,,,,,,,,,,,,,,,,,,,,,,,/muse/elements/blink
2023-09-04 18:06:28.742,0.400901002657147,0.8746920341293046,0.1509524054636972,0.7625269890083598,0.1817570812153916,-0.0344109528721832,-0.09231846694751612,0.5296500960712206,0.6099454589198749,0.4768348404929548,0.1537407929462258,0.6462796371249966,0.7598599729966372,0.2325958435674347,0.02241598428680463,0.4831633041471752,0.7816994610197517,0.1303287498166237,-0.5241006805062102,0.4418493546797691,297.7655677655678,759.5238095238095,799.8168498168499,703.919413919414,756.7032967032967,-0.181396,-0.084473,0.983093,-5.794525,-7.192688,-21.271515,1,2,4,1,1,65.000000
2023-09-04 18:06:29.277,,,,,,,,,,,,,,,,,,,,,,,,,,,,,,,,,,,,,,/muse/elements/blink
2023-09-04 18:06:29.743,0.400901002657147,0.8746920341293046,0.2445986776150311,0.8905128854392566,0.1817570812153916,-0.0344109528721832,-0.4070594553923905,0.630910006388437,0.6099454589198749,0.4768348404929548,0.04182673713567826,1.182184560818982,0.7598599729966372,0.2325958435674347,-0.04673738572785928,0.9544053099060607,0.7816994610197517,0.1303287498166237,-0.4851232772572487,0.8024087205298454,457.3260073260074,591.0989010989011,803.040293040293,682.5641025641025,767.5824175824176,-0.131592,-0.273926,0.942688,7.073059,0.672913,24.486542,1,1,4,1,1,65.000000
2023-09-04 18:06:29.800,,,,,,,,,,,,,,,,,,,,,,,,,,,,,,,,,,,,,,/muse/elements/blink
2023-09-04 18:06:30.751,0.400901002657147,0.8746920341293046,0.4883080404316928,0.9279334611654598,0.1817570812153916,-0.0344109528721832,0.02217818741768284,0.6490454324846749,0.6099454589198749,0.4768348404929548,-0.06279210748281137,1.231292046449032,0.7598599729966372,0.2325958435674347,-0.04749848097581962,1.161689427653602,0.7816994610197517,0.1303287498166237,-0.3925440402854871,0.8823508699858046,0,0,809.8901098901099,633.4065934065934,716.4102564102565,-0.258728,-0.083984,0.931580,-0.844879,-4.261780,-2.317810,1,1,4,1,1,65.000000
2023-09-04 18:06:31.743,0.400901002657147,0.8746920341293046,0.4743985844582861,0.7939544163111412,0.1817570812153916,-0.0344109528721832,0.1262195550282312,0.6231244090092655,0.6099454589198749,0.4768348404929548,0.09681772072917275,0.9892849859634849,0.7598599729966372,0.2325958435674347,-0.04551018767814874,0.9029563088620434,0.7816994610197517,0.1303287498166237,-0.2493585862848924,0.4982120083698672,0,157.1428571428571,789.7435897435897,610.4395604395604,787.7289377289378,-0.363403,-0.182678,0.886963,0.927124,9.061890,-0.560760,1,4,4,1,1,65.000000
2023-09-04 18:06:32.744,0.400901002657147,0.8746920341293046,0.1467721758560434,0.7596038534452682,0.1817570812153916,-0.0344109528721832,0.02814927620614109,0.6274797975470253,0.6099454589198749,0.4768348404929548,-0.08059389294831293,0.8733052495096645,0.7598599729966372,0.2325958435674347,-0.1992870472227943,0.836644360111119,0.7816994610197517,0.1303287498166237,-0.1735177053756582,0.4323507622797945,2.014652014652015,368.2783882783883,792.1611721611722,641.4652014652015,792.1611721611722,-0.279419,-0.204285,0.916992,1.674805,-8.545990,-0.284119,1,4,4,1,1,65.000000
2023-09-04 18:06:33.545,,,,,,,,,,,,,,,,,,,,,,,,,,,,,,,,,,,,,,/muse/elements/blink
2023-09-04 18:06:33.742,0.400901002657147,0.8746920341293046,-0.2206611658800613,0.7596038534452682,0.1817570812153916,-0.0344109528721832,-0.1291650184337026,0.6274797975470253,0.6099454589198749,0.4768348404929548,0.5055139215862593,0.8733052495096645,0.7598599729966372,0.2325958435674347,0.5227565806098456,0.836644360111119,0.7816994610197517,0.1303287498166237,0.3492240845543791,0.4323507622797945,139.8168498168498,178.4981684981685,800.6227106227107,648.7179487179487,689.0109890109891,-0.345642,-0.120789,0.915039,-2.871094,-3.544006,-1.360779,1,4,4,1,2,65.000000
2023-09-04 18:06:34.745,0.400901002657147,0.8746920341293046,-0.1305379640960112,0.6012831031833072,0.1817570812153916,-0.0344109528721832,-0.2369194043113413,0.1414125786054254,0.6099454589198749,0.4768348404929548,0.4659509119506554,0.5446502445304865,0.7598599729966372,0.2325958435674347,0.1857776347236648,0.6643383947833246,0.7816994610197517,0.1303287498166237,-0.124441668722445,0.4555577406490279,0,0,799.0109890109891,627.3626373626374,852.1978021978023,-0.364807,-0.041138,0.888550,-7.013245,-6.145935,-10.923615,1,4,4,1,1,65.000000
2023-09-04 18:06:35.742,0.400901002657147,0.8746920341293046,-0.1599024397167318,0.8392206491408806,0.1817570812153916,-0.0344109528721832,-0.3747967143399134,0.3061392746727971,0.6099454589198749,0.4768348404929548,0.1757808588631853,0.5249445462247353,0.7598599729966372,0.2325958435674347,-0.1913319457110361,0.5823169754246017,0.7816994610197517,0.1303287498166237,-0.37689521695162,0.4923854915010314,597.5457875457876,249.4139194139194,802.6373626373627,769.5970695970697,784.9084249084249,-0.324768,-0.060364,0.892700,1.764526,-3.125305,6.220703,1,4,4,1,1,65.000000
2023-09-04 18:06:36.749,0.400901002657147,0.8746920341293046,0.1203674459611717,0.266779430689132,0.1817570812153916,-0.0344109528721832,-0.2717417742768565,0.5083731502182797,0.6099454589198749,0.4768348404929548,0.2442932406571434,1.016086509209756,0.7598599729966372,0.2325958435674347,-0.1637911721063867,0.8351332783657592,0.7816994610197517,0.1303287498166237,-0.3930463064897329,0.5143665685794769,397.2893772893773,360.6227106227107,805.0549450549451,733.7362637362637,711.1721611721612,-0.431946,-0.097107,0.913025,11.940460,4.224396,-8.097382,1,4,4,1,1,65.000000
2023-09-04 18:06:36.937,,,,,,,,,,,,,,,,,,,,,,,,,,,,,,,,,,,,,,/muse/elements/blink
2023-09-04 18:06:37.113,,,,,,,,,,,,,,,,,,,,,,,,,,,,,,,,,,,,,,/muse/elements/blink
2023-09-04 18:06:37.613,,,,,,,,,,,,,,,,,,,,,,,,,,,,,,,,,,,,,,/muse/elements/blink
2023-09-04 18:06:37.741,0.400901002657147,0.8746920341293046,0.2352652434259327,0.6477859163634671,0.1817570812153916,-0.0344109528721832,-0.2047976957081545,0.5030974781106783,0.6099454589198749,0.4768348404929548,0.2525987875965283,0.9158922112203097,0.7598599729966372,0.2325958435674347,0.05720062651146101,0.7498555472662416,0.7816994610197517,0.1303287498166237,-0.2598527501646932,0.5429172177576304,167.2161172161172,121.6849816849817,801.025641025641,705.934065934066,751.8681318681319,-0.354370,-0.166992,0.912537,2.041168,-2.250519,-0.343933,1,4,4,1,1,65.000000
2023-09-04 18:06:38.557,,,,,,,,,,,,,,,,,,,,,,,,,,,,,,,,,,,,,,/muse/elements/blink
2023-09-04 18:06:38.735,,,,,,,,,,,,,,,,,,,,,,,,,,,,,,,,,,,,,,/muse/elements/blink
2023-09-04 18:06:38.745,0.400901002657147,0.8746920341293046,-0.1634531579884612,0.7382913177764583,0.1817570812153916,-0.0344109528721832,-0.1708676246462559,0.6043424113598049,0.6099454589198749,0.4768348404929548,-0.06785466865126158,0.7064487867160085,0.7598599729966372,0.2325958435674347,-0.03929723506465526,0.7456981682074039,0.7816994610197517,0.1303287498166237,-0.2550542347708031,0.4092164264317261,864.6886446886447,660.4029304029305,791.3553113553114,841.3186813186813,832.0512820512821,-0.274231,0.116882,0.975952,10.400238,-9.458160,16.942444,1,4,4,1,1,65.000000
2023-09-04 18:06:38.931,,,,,,,,,,,,,,,,,,,,,,,,,,,,,,,,,,,,,,/muse/elements/blink
2023-09-04 18:06:39.350,,,,,,,,,,,,,,,,,,,,,,,,,,,,,,,,,,,,,,/muse/elements/blink
2023-09-04 18:06:39.742,0.400901002657147,0.8746920341293046,-0.1187714628162916,0.8390539252105208,0.1817570812153916,-0.0344109528721832,0.04975087449857057,0.823911792951224,0.6099454589198749,0.4768348404929548,0.1823235442596598,0.4551037490568583,0.7598599729966372,0.2325958435674347,0.07392306803060006,0.637257743853373,0.7816994610197517,0.1303287498166237,-0.2378293192093862,0.3030147879900355,255.8608058608059,0,795.3846153846154,608.4249084249085,712.7838827838829,0.016968,0.004578,0.991638,4.508514,-5.203857,8.097382,1,2,4,1,1,65.000000
2023-09-04 18:06:39.898,,,,,,,,,,,,,,,,,,,,,,,,,,,,,,,,,,,,,,/muse/elements/blink
2023-09-04 18:06:40.256,,,,,,,,,,,,,,,,,,,,,,,,,,,,,,,,,,,,,,/muse/elements/blink
2023-09-04 18:06:40.675,,,,,,,,,,,,,,,,,,,,,,,,,,,,,,,,,,,,,,/muse/elements/blink
2023-09-04 18:06:40.750,0.400901002657147,0.8746920341293046,0.3141744357434821,0.8390539252105208,0.1817570812153916,-0.0344109528721832,0.1831380107731061,0.823911792951224,0.6099454589198749,0.4768348404929548,0.3488693327704687,0.4551037490568583,0.7598599729966372,0.2325958435674347,0.1328208889295349,0.637257743853373,0.7816994610197517,0.1303287498166237,-0.2374269555022832,0.3030147879900355,454.5054945054945,305.4212454212454,796.1904761904763,728.901098901099,664.4322344322344,0.035583,0.060974,0.978516,2.826233,0.157013,-15.162964,1,1,4,1,1,70.000000
2023-09-04 18:06:40.851,,,,,,,,,,,,,,,,,,,,,,,,,,,,,,,,,,,,,,/muse/elements/blink
2023-09-04 18:06:41.485,,,,,,,,,,,,,,,,,,,,,,,,,,,,,,,,,,,,,,/muse/elements/blink
2023-09-04 18:06:41.741,0.400901002657147,0.8746920341293046,1.038585565537305,1.081233786790222,0.1817570812153916,-0.0344109528721832,0.5819043950052437,1.046134401186638,0.6099454589198749,0.4768348404929548,0.4557964391671424,1.14989531302438,0.7598599729966372,0.2325958435674347,0.08938412954286531,0.8518690894888258,0.7816994610197517,0.1303287498166237,-0.1944295887399312,0.6062000572615469,347.7289377289378,0,784.9084249084249,703.5164835164835,740.989010989011,-0.035522,0.037720,0.993408,-28.150177,-5.450592,-21.406097,1,1,4,1,1,70.000000
2023-09-04 18:06:41.990,,,,,,,,,,,,,,,,,,,,,,,,,,,,,,,,,,,,,,/muse/elements/blink
2023-09-04 18:06:42.750,1.170206272869569,0.8746920341293046,0.7863156809720419,1.293570285971478,0.7304026843256978,-0.0344109528721832,0.1209782430283162,0.7380269556848581,0.9582582449656197,0.4768348404929548,0.2386649357537075,0.859990960665276,0.8269917516967566,0.2325958435674347,0.03185090876946692,0.8846935246990613,0.6424608249674448,0.1303287498166237,-0.2282406978460555,0.43585117106968,712.3809523809524,869.92673992674,798.2051282051282,811.9047619047619,827.2161172161173,0.021118,-0.137878,0.965881,3.177643,-2.736511,2.975769,1,1,4,1,1,70.000000
2023-09-04 18:06:43.024,,,,,,,,,,,,,,,,,,,,,,,,,,,,,,,,,,,,,,/muse/elements/blink
2023-09-04 18:06:43.439,,,,,,,,,,,,,,,,,,,,,,,,,,,,,,,,,,,,,,/muse/elements/blink
2023-09-04 18:06:43.742,1.099929246804888,0.8746920341293046,0.2042742108811263,1.265697206422822,0.6882498694451785,-0.0344109528721832,-0.07106730834284683,0.6366938636789456,0.9688033080469621,0.4768348404929548,0.3792117733614729,0.6169020427153448,0.7972250984006665,0.2325958435674347,-0.05333018464273231,0.7713637684619623,0.6837813193056259,0.1303287498166237,-0.2732431511953011,0.3293086372432251,390.4395604395605,354.1758241758242,803.8461538461539,736.1538461538462,812.3076923076924,-0.215332,0.137756,0.941711,-2.429962,0.216827,-3.379517,1,1,4,1,1,70.000000
2023-09-04 18:06:44.318,,,,,,,,,,,,,,,,,,,,,,,,,,,,,,,,,,,,,,/muse/elements/blink
2023-09-04 18:06:44.515,,,,,,,,,,,,,,,,,,,,,,,,,,,,,,,,,,,,,,/muse/elements/blink
2023-09-04 18:06:44.742,1.0697265346378,0.8746920341293046,0.06761256642676654,0.3883198135172201,0.6527905832487414,-0.0344109528721832,0.02781654392775742,0.3958997560179122,0.8924240198437454,0.4768348404929548,0.4616456974378648,0.5584826269978467,0.7541507692272308,0.2325958435674347,0.1543845847194179,0.5813121597463405,0.6899630903101777,0.1303287498166237,0.08078927691337916,0.2247507196464302,133.7728937728938,610.4395604395604,758.7179487179487,645.0915750915751,703.1135531135532,-0.409912,0.072205,0.889282,-3.917847,-5.173950,10.901184,1,2,4,1,1,70.000000
2023-09-04 18:06:44.839,,,,,,,,,,,,,,,,,,,,,,,,,,,,,,,,,,,,,,/muse/elements/blink
2023-09-04 18:06:45.276,,,,,,,,,,,,,,,,,,,,,,,,,,,,,,,,,,,,,,/muse/elements/blink
2023-09-04 18:06:45.649,,,,,,,,,,,,,,,,,,,,,,,,,,,,,,,,,,,,,,/muse/elements/blink
2023-09-04 18:06:45.751,1.0697265346378,0.8746920341293046,0.08361528386985573,0.3883198135172201,0.6527905832487414,-0.0344109528721832,-0.1566337303441426,0.3958997560179122,0.8924240198437454,0.4768348404929548,0.2183621956011614,0.5584826269978467,0.7541507692272308,0.2325958435674347,0.4222133351093469,0.5813121597463405,0.6899630903101777,0.1303287498166237,0.2820508765836781,0.2247507196464302,695.0549450549451,566.1172161172161,805.0549450549451,820.3663003663004,782.893772893773,-0.172241,0.055237,0.971191,-2.429962,-2.138367,-8.860016,1,4,4,1,1,70.000000
2023-09-04 18:06:46.349,,,,,,,,,,,,,,,,,,,,,,,,,,,,,,,,,,,,,,/muse/elements/blink
2023-09-04 18:06:46.741,1.0697265346378,0.8746920341293046,0.08361528386985573,0.3883198135172201,0.6527905832487414,-0.0344109528721832,-0.1566337303441426,0.3958997560179122,0.8924240198437454,0.4768348404929548,0.2183621956011614,0.5584826269978467,0.7541507692272308,0.2325958435674347,0.4222133351093469,0.5813121597463405,0.6899630903101777,0.1303287498166237,0.2820508765836781,0.2247507196464302,386.007326007326,890.8791208791209,802.6373626373627,751.0622710622711,759.1208791208792,-0.209961,-0.031189,0.947144,-9.951630,-1.667328,35.522308,1,2,4,1,2,70.000000
2023-09-04 18:06:46.872,,,,,,,,,,,,,,,,,,,,,,,,,,,,,,,,,,,,,,/muse/elements/blink
2023-09-04 18:06:47.092,,,,,,,,,,,,,,,,,,,,,,,,,,,,,,,,,,,,,,/muse/elements/blink
2023-09-04 18:06:47.378,,,,,,,,,,,,,,,,,,,,,,,,,,,,,,,,,,,,,,/muse/elements/blink
2023-09-04 18:06:47.554,,,,,,,,,,,,,,,,,,,,,,,,,,,,,,,,,,,,,,/muse/elements/blink
2023-09-04 18:06:47.741,1.0697265346378,0.8746920341293046,0.08361528386985573,0.3883198135172201,0.6527905832487414,-0.0344109528721832,-0.1566337303441426,0.3958997560179122,0.8924240198437454,0.4768348404929548,0.2183621956011614,0.5584826269978467,0.7541507692272308,0.2325958435674347,0.4222133351093469,0.5813121597463405,0.6899630903101777,0.1303287498166237,0.2820508765836781,0.2247507196464302,242.5641025641026,0,806.6666666666667,724.8717948717949,773.2234432234433,-0.254944,0.117798,0.979736,8.381500,-6.422577,-13.510590,1,2,4,1,2,70.000000
2023-09-04 18:06:47.902,,,,,,,,,,,,,,,,,,,,,,,,,,,,,,,,,,,,,,/muse/elements/blink
2023-09-04 18:06:48.406,,,,,,,,,,,,,,,,,,,,,,,,,,,,,,,,,,,,,,/muse/elements/blink
2023-09-04 18:06:48.606,,,,,,,,,,,,,,,,,,,,,,,,,,,,,,,,,,,,,,/muse/elements/blink
2023-09-04 18:06:48.751,1.0697265346378,0.8746920341293046,0.08361528386985573,0.3883198135172201,0.6527905832487414,-0.0344109528721832,-0.1566337303441426,0.3958997560179122,0.8924240198437454,0.4768348404929548,0.2183621956011614,0.5584826269978467,0.7541507692272308,0.2325958435674347,0.4222133351093469,0.5813121597463405,0.6899630903101777,0.1303287498166237,0.2820508765836781,0.2247507196464302,664.4322344322344,543.5531135531136,796.5934065934066,823.5897435897436,828.8278388278388,-0.158264,0.020813,0.967651,-7.446899,-4.830017,-8.732910,1,2,4,1,2,70.000000
2023-09-04 18:06:49.025,,,,,,,,,,,,,,,,,,,,,,,,,,,,,,,,,,,,,,/muse/elements/blink
2023-09-04 18:06:49.526,,,,,,,,,,,,,,,,,,,,,,,,,,,,,,,,,,,,,,/muse/elements/blink
2023-09-04 18:06:49.741,1.0697265346378,0.8746920341293046,0.2682670717447841,0.3883198135172201,0.6527905832487414,-0.0344109528721832,-0.2467552248219847,0.3958997560179122,0.8924240198437454,0.4768348404929548,0.04044396587475813,0.5584826269978467,0.7541507692272308,0.2325958435674347,0.01812047886390032,0.5813121597463405,0.6899630903101777,0.1303287498166237,-0.2131183538755646,0.2247507196464302,373.919413919414,177.2893772893773,794.1758241758242,741.3919413919414,921.0989010989011,-0.228882,-0.054199,0.953247,-5.248718,-5.473022,-3.656158,1,2,4,1,2,70.000000
2023-09-04 18:06:49.808,,,,,,,,,,,,,,,,,,,,,,,,,,,,,,,,,,,,,,/muse/elements/blink
2023-09-04 18:06:49.984,,,,,,,,,,,,,,,,,,,,,,,,,,,,,,,,,,,,,,/muse/elements/blink
2023-09-04 18:06:50.602,,,,,,,,,,,,,,,,,,,,,,,,,,,,,,,,,,,,,,/muse/elements/blink
2023-09-04 18:06:50.745,1.0697265346378,0.8746920341293046,-0.06744700505497546,0.6739630191146214,0.6527905832487414,-0.0344109528721832,-0.146704722839186,0.08070224307785342,0.8924240198437454,0.4768348404929548,0.6502779751278785,0.5789744229990599,0.7541507692272308,0.2325958435674347,0.1272060380171961,0.7391884667199281,0.6899630903101777,0.1303287498166237,-0.06549099800747502,0.4984420828345165,952.5274725274726,620.9157509157509,777.6556776556777,839.7069597069598,960.1831501831502,-0.380005,-0.100281,0.923950,2.990723,-2.661743,3.536530,1,1,4,1,1,70.000000
2023-09-04 18:06:51.741,,,,,,,,,,,,,,,,,,,,,,,,,,,,,,,,,,,,,,/muse/elements/blink
2023-09-04 18:06:51.750,1.0697265346378,0.8746920341293046,0.3093272369222373,0.6688819159586349,0.6527905832487414,-0.0344109528721832,0.2802067773125816,0.04892965205926657,0.8924240198437454,0.4768348404929548,0.8827044927300186,0.4942006216635403,0.7541507692272308,0.2325958435674347,0.4141432775878416,0.7851991992809658,0.6899630903101777,0.1303287498166237,0.4370843917525799,0.5861639579831458,660,683.7728937728938,795.7875457875458,802.2344322344322,716.007326007326,-0.322510,0.011902,0.935364,1.988831,-4.822540,10.250702,1,2,4,1,1,70.000000
2023-09-04 18:06:51.981,,,,,,,,,,,,,,,,,,,,,,,,,,,,,,,,,,,,,,/muse/elements/blink
2023-09-04 18:06:52.156,,,,,,,,,,,,,,,,,,,,,,,,,,,,,,,,,,,,,,/muse/elements/blink
2023-09-04 18:06:52.439,,,,,,,,,,,,,,,,,,,,,,,,,,,,,,,,,,,,,,/muse/elements/blink
2023-09-04 18:06:52.656,,,,,,,,,,,,,,,,,,,,,,,,,,,,,,,,,,,,,,/muse/elements/blink
2023-09-04 18:06:52.741,1.0697265346378,0.8746920341293046,0.6653589806526512,0.7671063987736919,0.6527905832487414,-0.0344109528721832,0.5976476118812988,0.4814550808079306,0.8924240198437454,0.4768348404929548,0.4154795134798168,0.827898292638407,0.7541507692272308,0.2325958435674347,0.1919175489476593,0.9712847998654203,0.6899630903101777,0.1303287498166237,0.09177314084195767,0.3523637803048864,420.2564102564103,256.6666666666667,812.7106227106227,771.6117216117216,769.1941391941392,-0.299316,-0.003296,0.938171,-3.177643,-6.160889,-4.501038,1,1,4,1,1,70.000000
2023-09-04 18:06:52.853,,,,,,,,,,,,,,,,,,,,,,,,,,,,,,,,,,,,,,/muse/elements/blink
2023-09-04 18:06:53.048,,,,,,,,,,,,,,,,,,,,,,,,,,,,,,,,,,,,,,/muse/elements/blink
2023-09-04 18:06:53.465,,,,,,,,,,,,,,,,,,,,,,,,,,,,,,,,,,,,,,/muse/elements/blink
2023-09-04 18:06:53.663,,,,,,,,,,,,,,,,,,,,,,,,,,,,,,,,,,,,,,/muse/elements/blink
2023-09-04 18:06:53.741,1.0697265346378,0.8746920341293046,0.5254384190905733,0.6574699501289926,0.6527905832487414,-0.0344109528721832,0.4745780083445902,0.4805754405051489,0.8924240198437454,0.4768348404929548,0.2822122792788744,0.7559170232365406,0.7541507692272308,0.2325958435674347,0.09088576946665944,1.019982159958277,0.6899630903101777,0.1303287498166237,-0.161917107541941,0.362714826592883,215.970695970696,126.1172161172161,798.2051282051282,685.7875457875458,787.3260073260074,-0.287964,-0.096313,0.934265,7.297363,3.551483,3.573914,1,1,2,1,1,70.000000
2023-09-04 18:06:54.588,,,,,,,,,,,,,,,,,,,,,,,,,,,,,,,,,,,,,,/muse/elements/blink
2023-09-04 18:06:54.750,1.0697265346378,0.8746920341293046,0.443250708611218,0.6574699501289926,0.6527905832487414,-0.0344109528721832,0.3947447821641071,0.4805754405051489,0.8924240198437454,0.4768348404929548,0.5294714768548455,0.7559170232365406,0.7541507692272308,0.2325958435674347,0.00737768561054404,1.019982159958277,0.6899630903101777,0.1303287498166237,-0.5623223574021342,0.362714826592883,680.952380952381,655.5677655677656,806.6666666666667,807.8754578754579,737.7655677655678,-0.264771,-0.007935,0.961060,0.485992,-2.160797,8.396454,1,1,2,1,1,70.000000
2023-09-04 18:06:55.025,,,,,,,,,,,,,,,,,,,,,,,,,,,,,,,,,,,,,,/muse/elements/blink
2023-09-04 18:06:55.618,,,,,,,,,,,,,,,,,,,,,,,,,,,,,,,,,,,,,,/muse/elements/blink
2023-09-04 18:06:55.741,1.0697265346378,0.8746920341293046,0.8421094406187744,0.5603456123776741,0.6527905832487414,-0.0344109528721832,0.3999193958815755,0.7429749335646907,0.8924240198437454,0.4768348404929548,0.7377221796223353,1.050894363896279,0.7541507692272308,0.2325958435674347,0.2331623901132636,0.7786481001385354,0.6899630903101777,0.1303287498166237,-0.245603902856095,0.455095545883739,466.5934065934066,0,807.0695970695971,770.8058608058608,877.5824175824176,-0.384277,0.026672,0.918518,1.143951,-6.422577,6.646881,1,1,2,1,1,70.000000
2023-09-04 18:06:55.903,,,,,,,,,,,,,,,,,,,,,,,,,,,,,,,,,,,,,,/muse/elements/blink
2023-09-04 18:06:56.407,,,,,,,,,,,,,,,,,,,,,,,,,,,,,,,,,,,,,,/muse/elements/blink
2023-09-04 18:06:56.712,,,,,,,,,,,,,,,,,,,,,,,,,,,,,,,,,,,,,,/muse/elements/blink
2023-09-04 18:06:56.743,1.0697265346378,0.8746920341293046,1.060266355490786,0.7744487824495667,0.6527905832487414,-0.0344109528721832,0.6248355471277273,0.9271493741579725,0.8924240198437454,0.4768348404929548,0.8302125399173197,1.036514082928823,0.7541507692272308,0.2325958435674347,0.399984458231997,0.9103109592422578,0.6899630903101777,0.1303287498166237,-0.1199234447998233,0.4322546262824568,1062.527472527473,478.2783882783883,795.7875457875458,879.1941391941392,952.9304029304029,-0.384338,0.064209,0.896423,1.465454,-2.302856,2.953339,1,2,2,1,1,70.000000
2023-09-04 18:06:57.543,,,,,,,,,,,,,,,,,,,,,,,,,,,,,,,,,,,,,,/muse/elements/blink
2023-09-04 18:06:57.743,1.0697265346378,0.8746920341293046,1.032228817516781,0.7744487824495667,0.6527905832487414,-0.0344109528721832,0.6391541508797397,0.9271493741579725,0.8924240198437454,0.4768348404929548,0.7821528177790653,1.036514082928823,0.7541507692272308,0.2325958435674347,0.08052389888159363,0.9103109592422578,0.6899630903101777,0.1303287498166237,-0.2362481495826244,0.4322546262824568,855.8241758241759,869.5238095238095,793.7728937728938,822.7838827838829,752.2710622710623,-0.337952,-0.062317,0.913391,-3.536530,-7.768402,2.923431,1,4,1,1,1,70.000000
2023-09-04 18:06:58.160,,,,,,,,,,,,,,,,,,,,,,,,,,,,,,,,,,,,,,/muse/elements/blink
2023-09-04 18:06:58.741,1.0697265346378,0.8746920341293046,0.9827800613159213,0.7744487824495667,0.6527905832487414,-0.0344109528721832,0.5304803219707728,0.9271493741579725,0.8924240198437454,0.4768348404929548,0.4612200038946893,1.036514082928823,0.7541507692272308,0.2325958435674347,0.06789067932194462,0.9103109592422578,0.6899630903101777,0.1303287498166237,-0.302639297028719,0.4322546262824568,633.8095238095239,724.4688644688645,795.3846153846154,780.8791208791209,748.2417582417582,-0.310974,-0.013733,0.930969,1.839294,-2.616882,-3.850555,1,4,2,1,2,70.000000
2023-09-04 18:06:59.049,,,,,,,,,,,,,,,,,,,,,,,,,,,,,,,,,,,,,,/muse/elements/blink
2023-09-04 18:06:59.289,,,,,,,,,,,,,,,,,,,,,,,,,,,,,,,,,,,,,,/muse/elements/blink
2023-09-04 18:06:59.576,,,,,,,,,,,,,,,,,,,,,,,,,,,,,,,,,,,,,,/muse/elements/blink
2023-09-04 18:06:59.743,1.0697265346378,0.8746920341293046,0.641579775622629,0.9687355875590685,0.6527905832487414,-0.0344109528721832,0.4373677479217379,0.8934686564623817,0.8924240198437454,0.4768348404929548,0.2159990479170249,1.275865159395413,0.7541507692272308,0.2325958435674347,0.05304941855284346,0.7328250813847811,0.6899630903101777,0.1303287498166237,-0.1175685259884773,0.5714773404052855,1301.868131868132,913.4432234432235,791.3553113553114,919.4871794871796,850.1831501831502,-0.281433,-0.003784,0.937195,4.837494,-9.002075,2.355194,1,4,1,1,1,70.000000
2023-09-04 18:07:00.741,1.0697265346378,0.8746920341293046,0.4515675928445129,0.7995198044653049,0.6527905832487414,-0.0344109528721832,0.3078311675361883,0.6712609328153425,0.8924240198437454,0.4768348404929548,0.3042715478386644,1.28640081325689,0.7541507692272308,0.2325958435674347,0.06515763314117834,0.7149751534193794,0.6899630903101777,0.1303287498166237,-0.05922851615598653,0.5171494511126935,60.84249084249085,563.2967032967033,794.1758241758242,666.8498168498169,708.3516483516484,-0.309509,-0.062744,0.916321,2.422485,-6.557159,0.246735,1,4,1,1,1,70.000000
2023-09-04 18:07:00.880,,,,,,,,,,,,,,,,,,,,,,,,,,,,,,,,,,,,,,/muse/elements/blink
2023-09-04 18:07:01.741,1.0697265346378,0.8746920341293046,-0.04402969298482094,0.7572016588054792,0.6527905832487414,-0.0344109528721832,-0.1462548108482229,0.645023680466751,0.8924240198437454,0.4768348404929548,0.1432465215829688,0.9204948645006156,0.7541507692272308,0.2325958435674347,0.09546734621742202,0.7306175946618482,0.6899630903101777,0.1303287498166237,-0.270863351646484,0.3882747672244578,835.6776556776557,743.8095238095239,797.8021978021978,838.901098901099,1007.326007326007,-0.297058,0.078735,0.946594,-0.463562,-2.452393,-4.725342,1,4,1,1,1,65.000000
2023-09-04 18:07:02.741,1.0697265346378,0.8746920341293046,-0.134292227953151,0.8637097775267021,0.6527905832487414,-0.0344109528721832,-0.150356646749762,0.5912906653267455,0.8924240198437454,0.4768348404929548,0.3015982378569914,0.680286290732544,0.7541507692272308,0.2325958435674347,0.1464249671271645,0.6651633410517422,0.6899630903101777,0.1303287498166237,-0.4346433226407951,0.3414254499955102,587.8754578754579,620.1098901098901,805.4578754578755,777.6556776556777,753.8827838827839,-0.305359,-0.069763,0.933044,-0.994415,-4.523468,-4.695435,1,4,1,1,1,65.000000
2023-09-04 18:07:03.031,,,,,,,,,,,,,,,,,,,,,,,,,,,,,,,,,,,,,,/muse/elements/blink
2023-09-04 18:07:03.231,,,,,,,,,,,,,,,,,,,,,,,,,,,,,,,,,,,,,,/muse/elements/blink
2023-09-04 18:07:03.410,,,,,,,,,,,,,,,,,,,,,,,,,,,,,,,,,,,,,,/muse/elements/blink
2023-09-04 18:07:03.743,1.0697265346378,0.8746920341293046,0.9365770496822889,0.8572467589278888,0.6527905832487414,-0.0344109528721832,0.3803248409241589,0.6053814631256147,0.8924240198437454,0.4768348404929548,0.5884519368875142,0.7000257924112488,0.7541507692272308,0.2325958435674347,0.1696841333768335,0.6271702947296602,0.6899630903101777,0.1303287498166237,-0.2381616383270039,0.4063101936759956,1238.205128205128,830.4395604395604,795.3846153846154,915.8608058608058,799.0109890109891,-0.302795,-0.014893,0.944214,1.607513,-3.917847,-7.005768,1,4,1,1,1,65.000000
2023-09-04 18:07:04.027,,,,,,,,,,,,,,,,,,,,,,,,,,,,,,,,,,,,,,/muse/elements/blink
2023-09-04 18:07:04.534,,,,,,,,,,,,,,,,,,,,,,,,,,,,,,,,,,,,,,/muse/elements/blink
2023-09-04 18:07:04.745,1.0697265346378,0.8746920341293046,0.9484345969347164,0.8632748919606463,0.6527905832487414,-0.0344109528721832,0.3773260406629433,0.6713936036814315,0.8924240198437454,0.4768348404929548,0.5226433075011037,0.5287977772471495,0.7541507692272308,0.2325958435674347,0.1415963158960143,0.6619496785737249,0.6899630903101777,0.1303287498166237,-0.2803911080565339,0.4910251000326084,994.0293040293041,766.7765567765568,787.7289377289378,874.3589743589744,738.974358974359,-0.329224,0.003784,0.922058,1.607513,-5.248718,-1.009369,1,4,1,1,1,65.000000
2023-09-04 18:07:04.777,,,,,,,,,,,,,,,,,,,,,,,,,,,,,,,,,,,,,,/muse/elements/blink
2023-09-04 18:07:05.741,1.0697265346378,0.8746920341293046,0.6284002104326564,0.8632748919606463,0.6527905832487414,-0.0344109528721832,0.1490309269009904,0.6713936036814315,0.8924240198437454,0.4768348404929548,0.3766550748053496,0.5287977772471495,0.7541507692272308,0.2325958435674347,0.2533019567301081,0.6619496785737249,0.6899630903101777,0.1303287498166237,-0.209021636270954,0.4910251000326084,707.948717948718,729.3040293040293,803.040293040293,803.4432234432235,834.0659340659341,-0.331299,0.025696,0.936218,1.966400,-4.747772,3.185120,1,4,1,1,1,65.000000
2023-09-04 18:07:06.584,,,,,,,,,,,,,,,,,,,,,,,,,,,,,,,,,,,,,,/muse/elements/blink
2023-09-04 18:07:06.747,1.0697265346378,0.8746920341293046,0.9013240600366056,0.8050855737145578,0.6527905832487414,-0.0344109528721832,0.4027064566073383,0.7850607847991478,0.8924240198437454,0.4768348404929548,0.4974330274279418,0.7884626904702114,0.7541507692272308,0.2325958435674347,0.1599915302980248,0.7052792948846199,0.6899630903101777,0.1303287498166237,-0.2238319701302669,0.3101009783743177,1317.582417582418,815.934065934066,796.5934065934066,944.8717948717949,735.3479853479854,-0.336975,0.007141,0.945374,-3.790741,-4.478607,-3.155212,1,4,1,1,1,65.000000
2023-09-04 18:07:06.870,,,,,,,,,,,,,,,,,,,,,,,,,,,,,,,,,,,,,,/muse/elements/blink
2023-09-04 18:07:07.483,,,,,,,,,,,,,,,,,,,,,,,,,,,,,,,,,,,,,,/muse/elements/blink
2023-09-04 18:07:07.740,1.0697265346378,0.8746920341293046,1.05026898483277,0.7754293144443909,0.6527905832487414,-0.0344109528721832,0.6357176704282107,0.7328055127531623,0.8924240198437454,0.4768348404929548,0.5209383907788218,0.8788947631934041,0.7541507692272308,0.2325958435674347,0.2101164645999064,0.7577607057787535,0.6899630903101777,0.1303287498166237,-0.1211693294231528,0.1898589417311761,964.6153846153846,703.5164835164835,793.7728937728938,886.4468864468864,1062.930402930403,-0.336426,-0.040955,0.917542,-0.097198,-3.132782,-9.637604,1,4,1,1,1,65.000000
2023-09-04 18:07:07.810,,,,,,,,,,,,,,,,,,,,,,,,,,,,,,,,,,,,,,/muse/elements/blink
2023-09-04 18:07:08.424,,,,,,,,,,,,,,,,,,,,,,,,,,,,,,,,,,,,,,/muse/elements/blink
2023-09-04 18:07:08.740,1.0697265346378,0.8746920341293046,0.0135026751982267,0.7736054243969996,0.6527905832487414,-0.0344109528721832,0.006625163987793474,0.7069573859383754,0.8924240198437454,0.4768348404929548,0.06030082927756564,0.6469450587273257,0.7541507692272308,0.2325958435674347,0.07769080630455978,0.732743288058012,0.6899630903101777,0.1303287498166237,-0.2066989028559152,0.1515191817429253,629.7802197802198,815.5311355311355,787.3260073260074,777.6556776556777,767.1794871794872,-0.332214,0.033264,0.930176,-11.476898,7.200165,0.792542,1,4,1,1,1,65.000000
2023-09-04 18:07:08.906,,,,,,,,,,,,,,,,,,,,,,,,,,,,,,,,,,,,,,/muse/elements/blink
2023-09-04 18:07:09.321,,,,,,,,,,,,,,,,,,,,,,,,,,,,,,,,,,,,,,/muse/elements/blink
2023-09-04 18:07:09.749,1.0697265346378,0.8746920341293046,0.289484243354369,1.232867751814392,0.6527905832487414,-0.0344109528721832,-0.07553667023158976,0.7668441320587613,0.8924240198437454,0.4768348404929548,0.3225740167773394,0.9505319485432547,0.7541507692272308,0.2325958435674347,-0.05004666632803969,0.7309131850173659,0.6899630903101777,0.1303287498166237,-0.2664306961644733,0.543494557895983,1146.336996336996,752.2710622710623,798.6080586080586,865.0915750915751,783.2967032967033,-0.311096,-0.062744,0.916199,-2.624359,-7.813263,-0.097198,1,4,1,1,1,65.000000
2023-09-04 18:07:10.643,,,,,,,,,,,,,,,,,,,,,,,,,,,,,,,,,,,,,,/muse/elements/blink
2023-09-04 18:07:10.746,1.0697265346378,0.8746920341293046,0.1260298099441381,0.6959792248981024,0.6527905832487414,-0.0344109528721832,-0.1306033992496805,0.2460868069233051,0.8924240198437454,0.4768348404929548,0.2927517059230072,0.8127817549249179,0.7541507692272308,0.2325958435674347,0.108882264400893,0.6081248639545561,0.6899630903101777,0.1303287498166237,-0.2805266278001817,0.3167921550636539,740.1831501831502,714.3956043956044,794.1758241758242,784.1025641025641,784.9084249084249,-0.278809,0.030640,0.951721,2.863617,-4.523468,-1.375732,1,2,1,1,1,65.000000
2023-09-04 18:07:11.043,,,,,,,,,,,,,,,,,,,,,,,,,,,,,,,,,,,,,,/muse/elements/blink
2023-09-04 18:07:11.741,1.0697265346378,0.8746920341293046,-0.1502849651082743,0.5248300643762187,0.6527905832487414,-0.0344109528721832,-0.1258642787412954,0.3819038318985199,0.8924240198437454,0.4768348404929548,0.2736535547757417,0.6689654423688743,0.7541507692272308,0.2325958435674347,0.05146767528444039,0.5723238521775489,0.6899630903101777,0.1303287498166237,-0.2233579507760227,0.203343177660907,407.3626373626374,635.4212454212454,802.6373626373627,723.6630036630037,676.9230769230769,-0.293762,-0.014709,0.939148,0.882263,-2.168274,-0.515900,1,4,1,1,1,65.000000
2023-09-04 18:07:12.747,1.0697265346378,0.8746920341293046,0.1704850445777126,0.6792620409338347,0.6527905832487414,-0.0344109528721832,0.09340680545059972,0.5841456892747778,0.8924240198437454,0.4768348404929548,0.3195442529160129,0.8446793306491138,0.7541507692272308,0.2325958435674347,0.08132764392901091,0.7135536180705605,0.6899630903101777,0.1303287498166237,-0.02431491303912446,0.2446219226467494,939.2307692307693,785.3113553113553,794.5787545787546,847.7655677655678,755.8974358974359,-0.422607,-0.032227,0.883118,1.652374,-2.377625,-0.388794,1,4,1,1,1,65.000000
2023-09-04 18:07:13.477,,,,,,,,,,,,,,,,,,,,,,,,,,,,,,,,,,,,,,/muse/elements/blink
2023-09-04 18:07:13.674,,,,,,,,,,,,,,,,,,,,,,,,,,,,,,,,,,,,,,/muse/elements/blink
2023-09-04 18:07:13.740,1.0697265346378,0.8746920341293046,0.08593796391655951,1.417393837137855,0.6527905832487414,-0.0344109528721832,0.348129061320345,1.555670457979395,0.8924240198437454,0.4768348404929548,0.6566684935526642,1.47915099859727,0.7541507692272308,0.2325958435674347,0.6005950041457985,0.8156895825968566,0.6899630903101777,0.1303287498166237,0.6038869862693867,0.2196075799085471,513.3333333333334,599.1575091575091,793.7728937728938,741.3919413919414,815.1282051282052,-0.398438,0.049988,0.911316,11.648865,-6.803894,11.947937,1,4,1,1,1,65.000000
2023-09-04 18:07:14.375,,,,,,,,,,,,,,,,,,,,,,,,,,,,,,,,,,,,,,/muse/elements/blink
2023-09-04 18:07:14.741,1.0697265346378,0.8746920341293046,-0.1598312951969088,1.007576323473478,0.6527905832487414,-0.0344109528721832,-0.1069034819637574,0.7402800135368022,0.8924240198437454,0.4768348404929548,0.2523255759731878,0.771613898856426,0.7541507692272308,0.2325958435674347,0.1640423515386889,0.6710507299850814,0.6899630903101777,0.1303287498166237,0.05662852231703255,0.3641364876350058,81.3919413919414,620.5128205128206,802.2344322344322,687.3992673992674,732.9304029304029,-0.363708,-0.021423,0.938538,-5.615082,-9.637604,-6.295471,1,4,1,1,1,65.000000
2023-09-04 18:07:15.740,1.0697265346378,0.8746920341293046,0.1390553144639343,0.6572077976067876,0.6527905832487414,-0.0344109528721832,-0.0084955293011046,0.4779188446936163,0.8924240198437454,0.4768348404929548,0.4862472595976829,0.7575039524883426,0.7541507692272308,0.2325958435674347,-0.003072656765384953,0.6828891171483318,0.6899630903101777,0.1303287498166237,-0.1973680035398664,0.4044812765307849,653.5531135531136,815.1282051282052,788.5347985347986,776.4468864468864,774.4322344322345,-0.348816,-0.013977,0.923584,5.099182,-0.605621,2.437439,1,4,1,1,1,65.000000
2023-09-04 18:07:16.740,1.0697265346378,0.8746920341293046,0.1311277712115775,0.3754021084260787,0.6527905832487414,-0.0344109528721832,-0.09290730185832703,0.387347511135592,0.8924240198437454,0.4768348404929548,0.4930835552467052,0.6709978968693187,0.7541507692272308,0.2325958435674347,0.1388844857933768,0.6561114006347591,0.6899630903101777,0.1303287498166237,-0.1769346321952964,0.3180264201834848,286.8864468864469,374.3223443223443,802.6373626373627,715.6043956043957,770,-0.262634,-0.081787,0.943970,-5.592651,-8.874969,-3.252411,1,4,1,1,1,65.000000
2023-09-04 18:07:17.747,1.0697265346378,0.8746920341293046,-0.1200933171612572,0.453010744037559,0.6527905832487414,-0.0344109528721832,-0.09126419560979714,0.5446858104496202,0.8924240198437454,0.4768348404929548,0.2340851362203189,0.8923745317628597,0.7541507692272308,0.2325958435674347,0.1822169366995394,0.6440068088693257,0.6899630903101777,0.1303287498166237,-0.2438292472779416,0.3253030177859949,76.55677655677655,591.0989010989011,799.4139194139194,660.8058608058608,644.2857142857143,-0.301636,-0.046753,0.939270,-0.500946,-5.158997,-5.084229,1,4,1,1,1,65.000000
2023-09-04 18:07:18.174,,,,,,,,,,,,,,,,,,,,,,,,,,,,,,,,,,,,,,/muse/elements/blink
2023-09-04 18:07:18.653,,,,,,,,,,,,,,,,,,,,,,,,,,,,,,,,,,,,,,/muse/elements/blink
2023-09-04 18:07:18.740,1.0697265346378,0.8746920341293046,-0.05467319152261106,0.4856595480752127,0.6527905832487414,-0.0344109528721832,0.05147418504692122,0.410144549860177,0.8924240198437454,0.4768348404929548,0.3134774307598708,0.6018933885032667,0.7541507692272308,0.2325958435674347,0.07734417682254655,0.5732258161798039,0.6899630903101777,0.1303287498166237,-0.317314778094932,0.3446611762093471,0,575.7875457875458,801.4285714285714,633.0036630036631,892.893772893773,-0.310974,-0.002319,0.939758,0.366364,-2.788849,6.392670,1,4,1,1,1,65.000000
2023-09-04 18:07:19.395,,,,,,,,,,,,,,,,,,,,,,,,,,,,,,,,,,,,,,/muse/elements/blink
2023-09-04 18:07:19.658,,,,,,,,,,,,,,,,,,,,,,,,,,,,,,,,,,,,,,/muse/elements/blink
2023-09-04 18:07:19.740,1.0697265346378,0.8746920341293046,0.4010663401735178,0.6500771171610688,0.6527905832487414,-0.0344109528721832,0.2250213507565756,0.252017470085427,0.8924240198437454,0.4768348404929548,0.3975295208841571,0.9065391817912067,0.7541507692272308,0.2325958435674347,0.1292168447310889,0.7836482729588049,0.6899630903101777,0.1303287498166237,-0.1045793061570104,0.4643185613042798,327.985347985348,778.8644688644689,797.8021978021978,714.3956043956044,792.5641025641025,-0.283142,-0.047913,0.947266,3.656158,1.256104,-3.558960,1,4,1,1,1,65.000000
2023-09-04 18:07:19.985,,,,,,,,,,,,,,,,,,,,,,,,,,,,,,,,,,,,,,/muse/elements/blink
2023-09-04 18:07:20.740,1.0697265346378,0.8746920341293046,0.9262372740498519,0.8262769967750134,0.6527905832487414,-0.0344109528721832,0.3989477663133953,0.846350972722775,0.8924240198437454,0.4768348404929548,0.3750608432088807,1.124932200410015,0.7541507692272308,0.2325958435674347,0.02656628484220192,0.7801667254811087,0.6899630903101777,0.1303287498166237,-0.1389232062812531,0.4520624862691658,74.13919413919415,686.996336996337,798.2051282051282,688.2051282051282,685.7875457875458,-0.288147,0.008057,0.946411,1.510315,0.059814,-2.153320,1,4,1,1,1,65.000000
2023-09-04 18:07:21.599,,,,,,,,,,,,,,,,,,,,,,,,,,,,,,,,,,,,,,/muse/elements/blink
2023-09-04 18:07:21.740,1.0697265346378,0.8746920341293046,0.1690757759038337,0.3971598061500933,0.6527905832487414,-0.0344109528721832,-0.214374768436319,0.4827453069354123,0.8924240198437454,0.4768348404929548,0.1210027404240216,0.8136423961028774,0.7541507692272308,0.2325958435674347,0.07188834952760148,0.7976963309383635,0.6899630903101777,0.1303287498166237,-0.1571493789465606,0.5066200311157678,776.4468864468864,772.014652014652,797.8021978021978,809.0842490842491,768.7912087912088,-0.284058,-0.085205,0.954407,-1.921539,-5.615082,-0.246735,1,4,1,1,1,65.000000
2023-09-04 18:07:21.817,,,,,,,,,,,,,,,,,,,,,,,,,,,,,,,,,,,,,,/muse/elements/blink
2023-09-04 18:07:22.123,,,,,,,,,,,,,,,,,,,,,,,,,,,,,,,,,,,,,,/muse/elements/blink
2023-09-04 18:07:22.279,,,,,,,,,,,,,,,,,,,,,,,,,,,,,,,,,,,,,,/muse/elements/blink
2023-09-04 18:07:22.741,1.0697265346378,0.8746920341293046,-0.1134656182240681,0.6474677824557211,0.6527905832487414,-0.0344109528721832,-0.2492698624898085,0.5378144658094774,0.8924240198437454,0.4768348404929548,0.1202436806218192,0.7888515290428134,0.7541507692272308,0.2325958435674347,0.0735376488977284,0.7622886483161028,0.6899630903101777,0.1303287498166237,-0.1345174380331428,0.6460871568483483,635.4212454212454,649.92673992674,809.8901098901099,792.967032967033,863.8827838827839,-0.256958,-0.051697,0.944519,-1.001892,-3.775787,1.368256,1,4,1,1,1,65.000000
2023-09-04 18:07:23.438,,,,,,,,,,,,,,,,,,,,,,,,,,,,,,,,,,,,,,/muse/elements/blink
2023-09-04 18:07:23.740,1.0697265346378,0.8746920341293046,0.2658182206730358,1.130796203350095,0.6527905832487414,-0.0344109528721832,0.01863026032306981,1.139120865585061,0.8924240198437454,0.4768348404929548,0.2401588125471082,1.169348143681386,0.7541507692272308,0.2325958435674347,0.05037884418362861,0.4640948636968106,0.6899630903101777,0.1303287498166237,-0.1441448964505274,0.2609051765746789,471.4285714285714,650.7326007326008,799.8168498168499,744.2124542124542,721.6483516483516,-0.262512,-0.037048,0.948914,1.345825,-3.917847,2.998199,1,4,1,1,1,65.000000
2023-09-04 18:07:23.960,,,,,,,,,,,,,,,,,,,,,,,,,,,,,,,,,,,,,,/muse/elements/blink
2023-09-04 18:07:24.269,,,,,,,,,,,,,,,,,,,,,,,,,,,,,,,,,,,,,,/muse/elements/blink
2023-09-04 18:07:24.741,1.0697265346378,0.8746920341293046,0.780142647511115,1.294500461569489,0.6527905832487414,-0.0344109528721832,0.3084882090271306,1.292082407545846,0.8924240198437454,0.4768348404929548,0.3659910588390284,1.217593092900928,0.7541507692272308,0.2325958435674347,-0.02196151510271657,0.5771899799375626,0.6899630903101777,0.1303287498166237,-0.1384689159459584,0.2815315197047689,331.6117216117216,621.7216117216118,803.040293040293,720.4395604395604,686.1904761904763,-0.248352,-0.052734,0.928589,6.235657,-4.957123,-2.975769,1,4,1,1,1,65.000000
2023-09-04 18:07:24.772,,,,,,,,,,,,,,,,,,,,,,,,,,,,,,,,,,,,,,/muse/elements/blink
2023-09-04 18:07:25.472,,,,,,,,,,,,,,,,,,,,,,,,,,,,,,,,,,,,,,/muse/elements/blink
2023-09-04 18:07:25.745,1.0697265346378,0.8746920341293046,0.6374324823289299,0.7883741693015075,0.6527905832487414,-0.0344109528721832,0.1614371329906267,1.024635105216948,0.8924240198437454,0.4768348404929548,0.3943079600388508,0.6995885929080096,0.7541507692272308,0.2325958435674347,0.1818044375059689,0.6559036438028075,0.6899630903101777,0.1303287498166237,-0.123316090662712,0.4965797615026785,1149.56043956044,705.1282051282052,813.5164835164835,935.2014652014652,996.8498168498169,-0.272156,-0.083862,0.949646,-2.953339,-6.325378,0.942078,1,4,1,1,1,65.000000
2023-09-04 18:07:25.757,,,,,,,,,,,,,,,,,,,,,,,,,,,,,,,,,,,,,,/muse/elements/blink
2023-09-04 18:07:26.107,,,,,,,,,,,,,,,,,,,,,,,,,,,,,,,,,,,,,,/muse/elements/blink
2023-09-04 18:07:26.461,,,,,,,,,,,,,,,,,,,,,,,,,,,,,,,,,,,,,,/muse/elements/blink
2023-09-04 18:07:26.740,1.0697265346378,0.8746920341293046,0.9540903885225855,0.6865050008333365,0.6527905832487414,-0.0344109528721832,0.5579417838440281,0.8980854704903936,0.8924240198437454,0.4768348404929548,0.328323303877569,0.6183829977308375,0.7541507692272308,0.2325958435674347,0.1294277889631143,0.6320127836178051,0.6899630903101777,0.1303287498166237,-0.1153467780008363,0.4994595468021468,1024.652014652015,809.8901098901099,792.1611721611722,873.956043956044,767.5824175824176,-0.276611,-0.008911,0.952881,6.078644,-2.415009,-0.104675,1,4,1,1,1,65.000000
2023-09-04 18:07:27.076,,,,,,,,,,,,,,,,,,,,,,,,,,,,,,,,,,,,,,/muse/elements/blink
2023-09-04 18:07:27.745,1.0697265346378,0.8746920341293046,0.8063178568464996,0.6865050008333365,0.6527905832487414,-0.0344109528721832,0.4431300012883521,0.8980854704903936,0.8924240198437454,0.4768348404929548,0.4153736566735715,0.6183829977308375,0.7541507692272308,0.2325958435674347,0.1155519957524737,0.6320127836178051,0.6899630903101777,0.1303287498166237,-0.2502805544076031,0.4994595468021468,19.74358974358974,938.021978021978,789.7435897435897,990,787.7289377289378,-0.279602,-0.005371,0.939819,3.730927,-1.592560,1.084137,1,4,1,1,2,65.000000
2023-09-04 18:07:27.778,,,,,,,,,,,,,,,,,,,,,,,,,,,,,,,,,,,,,,/muse/elements/blink
2023-09-04 18:07:28.739,1.0697265346378,0.8746920341293046,0.3951734726062411,0.6865050008333365,0.6527905832487414,-0.0344109528721832,-0.4560462980138731,0.8980854704903936,0.8924240198437454,0.4768348404929548,0.07971102783153201,0.6183829977308375,0.7541507692272308,0.2325958435674347,0.1808283218204348,0.6320127836178051,0.6899630903101777,0.1303287498166237,-0.2669464724326172,0.4994595468021468,1625.018315018315,877.5824175824176,796.1904761904763,975.8974358974359,902.1611721611722,-0.277405,-0.005859,0.939331,0.867310,-4.261780,-0.897217,1,4,1,1,2,65.000000
2023-09-04 18:07:28.912,,,,,,,,,,,,,,,,,,,,,,,,,,,,,,,,,,,,,,/muse/elements/blink
2023-09-04 18:07:29.419,,,,,,,,,,,,,,,,,,,,,,,,,,,,,,,,,,,,,,/muse/elements/blink
2023-09-04 18:07:29.740,1.0697265346378,0.8746920341293046,0.2891117340137332,0.3916154381643818,0.6527905832487414,-0.0344109528721832,0.01947137412709279,0.3844989461642581,0.8924240198437454,0.4768348404929548,0.5585064387592178,0.5203244192882365,0.7541507692272308,0.2325958435674347,0.05940762820005475,0.721401118632783,0.6899630903101777,0.1303287498166237,-0.1971303989680634,0.2664343163163052,1587.142857142857,971.0622710622711,790.1465201465202,956.959706959707,826.8131868131868,-0.287170,0.063354,0.953491,5.749664,-0.523376,1.914062,1,4,1,1,1,65.000000
2023-09-04 18:07:29.749,,,,,,,,,,,,,,,,,,,,,,,,,,,,,,,,,,,,,,/muse/elements/blink
2023-09-04 18:07:30.036,,,,,,,,,,,,,,,,,,,,,,,,,,,,,,,,,,,,,,/muse/elements/blink
2023-09-04 18:07:30.450,,,,,,,,,,,,,,,,,,,,,,,,,,,,,,,,,,,,,,/muse/elements/blink
2023-09-04 18:07:30.740,1.0697265346378,0.8746920341293046,0.5338484964495348,0.3752711369610101,0.6527905832487414,-0.0344109528721832,0.4065848609135575,0.3862563007628442,0.8924240198437454,0.4768348404929548,0.6770695669099008,0.5203244192882365,0.7541507692272308,0.2325958435674347,3.594580402919189e-05,0.7127323541826784,0.6899630903101777,0.1303287498166237,-0.2848050052139908,0.3020475168209241,1534.761904761905,923.919413919414,792.1611721611722,966.6300366300367,955.3479853479854,-0.325256,-0.019226,0.935364,-0.127106,-3.147736,-4.321594,1,4,1,1,1,65.000000
2023-09-04 18:07:30.823,,,,,,,,,,,,,,,,,,,,,,,,,,,,,,,,,,,,,,/muse/elements/blink
2023-09-04 18:07:31.740,1.0697265346378,0.8746920341293046,0.1552611437625152,0.7211944435939986,0.6527905832487414,-0.0344109528721832,-0.09216699231350214,0.5423514083989051,0.8924240198437454,0.4768348404929548,0.3352292461882762,0.8007885023606603,0.7541507692272308,0.2325958435674347,-0.036136681801559,0.6256229880390284,0.6899630903101777,0.1303287498166237,-0.2851864306500097,0.3848678540224484,1644.358974358974,847.7655677655678,782.893772893773,929.1575091575091,889.2673992673992,-0.249451,-0.034241,0.937256,5.054321,-3.693542,3.267365,1,4,1,1,1,65.000000
2023-09-04 18:07:32.740,1.0697265346378,0.8746920341293046,0.7267990613048944,0.8506069074246779,0.6527905832487414,-0.0344109528721832,0.2598490372507509,0.6793018125894021,0.8924240198437454,0.4768348404929548,0.5216365590162385,0.9784456121022074,0.7541507692272308,0.2325958435674347,0.1236962063862505,0.773597870187576,0.6899630903101777,0.1303287498166237,-0.2477271682815388,0.3665277016196954,1621.794871794872,892.4908424908425,805.8608058608058,954.5421245421246,832.8571428571429,-0.309509,-0.063049,0.912537,5.398254,-1.757050,2.400055,1,4,1,1,1,70.000000
2023-09-04 18:07:32.883,,,,,,,,,,,,,,,,,,,,,,,,,,,,,,,,,,,,,,/muse/elements/blink
2023-09-04 18:07:33.750,1.0697265346378,0.8746920341293046,0.789599939748168,1.1997441271378,0.6527905832487414,-0.0344109528721832,0.3599770310197306,0.8572705106035826,0.8924240198437454,0.4768348404929548,0.43071737912032,0.948393511477846,0.7541507692272308,0.2325958435674347,0.09916304112566882,0.7550060611029892,0.6899630903101777,0.1303287498166237,-0.1752132354623472,0.4275820933573168,919.8901098901099,1067.362637362637,786.9230769230769,780.0732600732601,797.3992673992674,-0.300598,-0.007751,0.952209,6.676788,2.018738,4.889832,1,4,1,1,1,70.000000
2023-09-04 18:07:33.889,,,,,,,,,,,,,,,,,,,,,,,,,,,,,,,,,,,,,,/muse/elements/blink
2023-09-04 18:07:34.107,,,,,,,,,,,,,,,,,,,,,,,,,,,,,,,,,,,,,,/muse/elements/blink
2023-09-04 18:07:34.283,,,,,,,,,,,,,,,,,,,,,,,,,,,,,,,,,,,,,,/muse/elements/blink
2023-09-04 18:07:34.702,,,,,,,,,,,,,,,,,,,,,,,,,,,,,,,,,,,,,,/muse/elements/blink
2023-09-04 18:07:34.739,1.0697265346378,0.8746920341293046,0.2397007751973733,0.9508095771922386,0.6527905832487414,-0.0344109528721832,0.1380436804351508,0.6196239622717968,0.8924240198437454,0.4768348404929548,0.2984869915155153,0.5712065504863963,0.7541507692272308,0.2325958435674347,0.05689206410162465,0.6476342576529042,0.6899630903101777,0.1303287498166237,-0.2058489900199116,0.3172509985247154,1098.388278388278,675.7142857142858,783.2967032967033,830.0366300366301,774.0293040293041,-0.277893,-0.089966,0.939148,-2.362671,-8.867493,-4.844971,1,4,1,1,1,70.000000
2023-09-04 18:07:35.746,1.0697265346378,0.8746920341293046,0.4465985736995632,0.356615797812093,0.6527905832487414,-0.0344109528721832,0.216126250618553,0.6738370956117054,0.8924240198437454,0.4768348404929548,0.5049053785330996,0.8024376970231376,0.7541507692272308,0.2325958435674347,0.1799878057247255,0.82633088677607,0.6899630903101777,0.1303287498166237,-0.0535103650784961,0.4974045064886971,325.970695970696,781.6849816849817,801.025641025641,701.0989010989011,690.2197802197802,-0.334106,-0.060120,0.910889,8.426361,-1.016846,9.211426,1,4,1,1,1,70.000000
2023-09-04 18:07:36.740,1.0697265346378,0.8746920341293046,0.9267031653531759,0.7606011088144947,0.6527905832487414,-0.0344109528721832,0.4284916169980666,0.6441252586399361,0.8924240198437454,0.4768348404929548,0.5187539192065251,0.7910477132471773,0.7541507692272308,0.2325958435674347,0.2868381271539184,0.8863144032840102,0.6899630903101777,0.1303287498166237,-0.007934448248129909,0.4582954825485283,1459.010989010989,970.2564102564103,787.3260073260074,912.2344322344322,811.5018315018315,-0.335815,-0.054932,0.946777,-1.794434,-4.172058,-9.226379,1,4,1,1,1,70.000000
2023-09-04 18:07:36.834,,,,,,,,,,,,,,,,,,,,,,,,,,,,,,,,,,,,,,/muse/elements/blink
2023-09-04 18:07:37.672,,,,,,,,,,,,,,,,,,,,,,,,,,,,,,,,,,,,,,/muse/elements/blink
2023-09-04 18:07:37.739,1.0697265346378,0.8746920341293046,0.9454427877463255,0.9104309583923641,0.6527905832487414,-0.0344109528721832,0.3804975011518649,0.9297552347814098,0.8924240198437454,0.4768348404929548,0.5030427151540811,1.039457779480489,0.7541507692272308,0.2325958435674347,0.303842067530398,0.7530939082856496,0.6899630903101777,0.1303287498166237,-0.09401007279689767,0.3120966635703823,693.040293040293,759.1208791208792,799.8168498168499,743.4065934065934,719.6336996336996,-0.310181,-0.098389,0.961243,-0.224304,-4.575806,7.342224,1,1,1,1,1,70.000000
2023-09-04 18:07:37.957,,,,,,,,,,,,,,,,,,,,,,,,,,,,,,,,,,,,,,/muse/elements/blink
2023-09-04 18:07:38.740,1.0697265346378,0.8746920341293046,0.7610383581560163,0.9975877361367095,0.6527905832487414,-0.0344109528721832,0.1968444814052925,0.9223180745935463,0.8924240198437454,0.4768348404929548,0.4967999403129502,1.079604292154341,0.7541507692272308,0.2325958435674347,0.1493094246230428,0.7301308234770315,0.6899630903101777,0.1303287498166237,-0.2947923774340417,0.2789535567115435,875.5677655677656,419.4505494505495,816.3369963369963,769.1941391941392,750.2564102564103,-0.289368,-0.169617,0.911377,-2.115936,-18.594818,-27.985687,1,4,1,1,1,70.000000
2023-09-04 18:07:38.752,,,,,,,,,,,,,,,,,,,,,,,,,,,,,,,,,,,,,,/muse/elements/blink
2023-09-04 18:07:39.262,,,,,,,,,,,,,,,,,,,,,,,,,,,,,,,,,,,,,,/muse/elements/blink
2023-09-04 18:07:39.589,,,,,,,,,,,,,,,,,,,,,,,,,,,,,,,,,,,,,,/muse/elements/blink
2023-09-04 18:07:39.740,1.0697265346378,0.8746920341293046,0.9205230252969737,0.5878389002782984,0.6527905832487414,-0.0344109528721832,0.6696569626218358,0.4157453750107351,0.8924240198437454,0.4768348404929548,0.3020472376449503,0.6098001538551312,0.7541507692272308,0.2325958435674347,0.2241897188547704,0.6253198371231738,0.6899630903101777,0.1303287498166237,-0.05494249145230647,0.3502067455329688,272.7838827838828,551.6117216117216,804.6520146520147,732.1245421245421,766.3736263736264,-0.255188,0.126038,0.831726,4.344025,6.153412,5.465546,1,1,4,1,1,70.000000
2023-09-04 18:07:39.787,,,,,,,,,,,,,,,,,,,,,,,,,,,,,,,,,,,,,,/muse/elements/blink
2023-09-04 18:07:40.231,,,,,,,,,,,,,,,,,,,,,,,,,,,,,,,,,,,,,,/muse/elements/blink
2023-09-04 18:07:40.584,,,,,,,,,,,,,,,,,,,,,,,,,,,,,,,,,,,,,,/muse/elements/blink
2023-09-04 18:07:40.744,1.0697265346378,0.8746920341293046,0.5308451548884666,0.5878389002782984,0.6527905832487414,-0.0344109528721832,0.3079773367389,0.4157453750107351,0.8924240198437454,0.4768348404929548,0.482549334264886,0.6098001538551312,0.7541507692272308,0.2325958435674347,0.6352234915061138,0.6253198371231738,0.6899630903101777,0.1303287498166237,0.5416524019294152,0.3502067455329688,502.4542124542125,1324.432234432235,795.3846153846154,680.952380952381,826.007326007326,-0.261353,0.192810,0.922791,14.392853,-8.396454,15.290070,1,1,4,1,1,70.000000
2023-09-04 18:07:41.175,,,,,,,,,,,,,,,,,,,,,,,,,,,,,,,,,,,,,,/muse/elements/blink
2023-09-04 18:07:41.740,1.0697265346378,0.8746920341293046,0.9204730771553736,0.5878389002782984,0.6527905832487414,-0.0344109528721832,0.4059046385550087,0.4157453750107351,0.8924240198437454,0.4768348404929548,0.4821633576268415,0.6098001538551312,0.7541507692272308,0.2325958435674347,0.5976782219509574,0.6253198371231738,0.6899630903101777,0.1303287498166237,0.4762027118251765,0.3502067455329688,738.974358974359,1193.076923076923,792.1611721611722,740.1831501831502,774.8351648351648,-0.192078,0.328491,0.867004,-3.424377,-2.250519,-2.108459,1,2,2,1,2,70.000000
2023-09-04 18:07:42.740,1.010959817185046,0.8746920341293046,1.201884318621653,0.5878389002782984,0.7871841542730394,-0.0344109528721832,0.6398414619262462,0.4157453750107351,1.423265388855359,0.4768348404929548,0.328080329344064,0.6098001538551312,1.194249608865904,0.2325958435674347,0.1018933330419004,0.6253198371231738,0.9671677502191159,0.1303287498166237,-0.3330576190682749,0.3502067455329688,540.3296703296703,99.12087912087912,805.4578754578755,724.8717948717949,753.8827838827839,-0.129089,0.197998,0.990295,1.114044,-8.650665,7.020721,1,2,4,1,2,70.000000
2023-09-04 18:07:43.429,,,,,,,,,,,,,,,,,,,,,,,,,,,,,,,,,,,,,,/muse/elements/jaw_clench
2023-09-04 18:07:43.744,1.322940163073663,0.8746920341293046,1.017697015677212,0.6990641331539342,1.184515587629516,-0.0344109528721832,0.4477102802652309,0.5750198418539809,1.610907490352019,0.4768348404929548,0.2544910588628763,1.060590167327979,1.241368926917465,0.2325958435674347,-0.1136975706448549,0.8146843354732071,0.9136444737224718,0.1303287498166237,-0.4626197884825102,0.6300620799678739,548.7912087912088,351.3553113553114,794.1758241758242,710.3663003663004,717.6190476190476,-0.018555,0.314087,0.923035,1.263580,-3.297272,-1.884155,1,1,4,1,1,70.000000
2023-09-04 18:07:43.757,,,,,,,,,,,,,,,,,,,,,,,,,,,,,,,,,,,,,,/muse/elements/jaw_clench
2023-09-04 18:07:44.369,,,,,,,,,,,,,,,,,,,,,,,,,,,,,,,,,,,,,,/muse/elements/blink
2023-09-04 18:07:44.541,,,,,,,,,,,,,,,,,,,,,,,,,,,,,,,,,,,,,,/muse/elements/blink
2023-09-04 18:07:44.748,1.419649163956158,0.8746920341293046,0.457166995855171,0.594807611015445,1.303348720549783,-0.0344109528721832,0.3681615197713419,0.4715002843573479,1.607205322636477,0.4768348404929548,0.4954004949128569,0.6770196034964433,1.251870271741452,0.2325958435674347,-0.07112664550696966,0.5902780343349092,0.9081252582840625,0.1303287498166237,-0.3480411155749462,0.3851145876705109,309.8534798534799,539.92673992674,797.8021978021978,630.989010989011,656.3736263736264,-0.229736,0.077515,0.962524,-13.084412,15.536804,-29.458618,1,1,2,1,1,70.000000
2023-09-04 18:07:45.457,,,,,,,,,,,,,,,,,,,,,,,,,,,,,,,,,,,,,,/muse/elements/blink
2023-09-04 18:07:45.457,,,,,,,,,,,,,,,,,,,,,,,,,,,,,,,,,,,,,,/muse/elements/jaw_clench
2023-09-04 18:07:45.675,,,,,,,,,,,,,,,,,,,,,,,,,,,,,,,,,,,,,,/muse/elements/blink
2023-09-04 18:07:45.740,1.419649163956158,0.8746920341293046,0.7661796703572988,1.32882800280479,1.303348720549783,-0.0344109528721832,0.6007456247873114,1.067675871316096,1.607205322636477,0.4768348404929548,0.6255300161786941,1.112882900862455,1.251870271741452,0.2325958435674347,0.01678436789209816,0.9264239375765945,0.9081252582840625,0.1303287498166237,-0.2402277167220283,0.5682863922820446,798.2051282051282,763.5531135531136,803.4432234432235,782.0879120879121,737.7655677655678,-0.457336,0.071167,0.864807,1.046753,1.839294,13.121796,1,1,1,1,1,70.000000
2023-09-04 18:07:46.198,,,,,,,,,,,,,,,,,,,,,,,,,,,,,,,,,,,,,,/muse/elements/blink
2023-09-04 18:07:46.739,1.419649163956158,0.8746920341293046,0.8254960097392873,1.32882800280479,1.303348720549783,-0.0344109528721832,0.3798706483008185,1.067675871316096,1.607205322636477,0.4768348404929548,0.6469238441225968,1.112882900862455,1.251870271741452,0.2325958435674347,0.2391038501558126,0.9264239375765945,0.9081252582840625,0.1303287498166237,0.3094193629195194,0.5682863922820446,473.0402930402931,1157.216117216117,776.0439560439561,723.6630036630037,790.952380952381,-0.117676,0.113342,0.965332,26.737061,2.833710,-56.128387,1,1,2,1,1,70.000000
2023-09-04 18:07:46.897,,,,,,,,,,,,,,,,,,,,,,,,,,,,,,,,,,,,,,/muse/elements/blink
2023-09-04 18:07:47.072,,,,,,,,,,,,,,,,,,,,,,,,,,,,,,,,,,,,,,/muse/elements/blink
2023-09-04 18:07:47.511,,,,,,,,,,,,,,,,,,,,,,,,,,,,,,,,,,,,,,/muse/elements/blink
2023-09-04 18:07:47.688,,,,,,,,,,,,,,,,,,,,,,,,,,,,,,,,,,,,,,/muse/elements/blink
2023-09-04 18:07:47.745,1.419649163956158,0.8746920341293046,0.8028532759334792,1.32882800280479,1.303348720549783,-0.0344109528721832,0.3757674505807052,1.067675871316096,1.607205322636477,0.4768348404929548,0.4652136318833481,1.112882900862455,1.251870271741452,0.2325958435674347,0.1580808848277208,0.9264239375765945,0.9081252582840625,0.1303287498166237,-0.0008909902860288086,0.5682863922820446,490.7692307692308,526.6300366300367,782.4908424908425,707.1428571428571,740.5860805860806,-0.093567,0.076477,0.976990,10.273132,-2.781372,10.175934,1,2,2,1,2,70.000000
2023-09-04 18:07:48.121,,,,,,,,,,,,,,,,,,,,,,,,,,,,,,,,,,,,,,/muse/elements/blink
2023-09-04 18:07:48.296,,,,,,,,,,,,,,,,,,,,,,,,,,,,,,,,,,,,,,/muse/elements/blink
2023-09-04 18:07:48.729,,,,,,,,,,,,,,,,,,,,,,,,,,,,,,,,,,,,,,/muse/elements/blink
2023-09-04 18:07:48.740,1.419649163956158,0.8746920341293046,0.8028532759334792,1.088802902539929,1.303348720549783,-0.0344109528721832,0.3757674505807052,1.118786977628598,1.607205322636477,0.4768348404929548,0.4652136318833481,1.257977719816712,1.251870271741452,0.2325958435674347,0.1580808848277208,0.8112853708987888,0.9081252582840625,0.1303287498166237,-0.0008909902860288086,0.8202379804708069,205.0915750915751,564.5054945054945,805.8608058608058,673.6996336996338,720.0366300366301,-0.186218,-0.048462,0.969055,2.601929,2.168274,-1.727142,1,1,2,1,1,70.000000
2023-09-04 18:07:49.056,,,,,,,,,,,,,,,,,,,,,,,,,,,,,,,,,,,,,,/muse/elements/blink
2023-09-04 18:07:49.538,,,,,,,,,,,,,,,,,,,,,,,,,,,,,,,,,,,,,,/muse/elements/blink
2023-09-04 18:07:49.714,,,,,,,,,,,,,,,,,,,,,,,,,,,,,,,,,,,,,,/muse/elements/blink
2023-09-04 18:07:49.739,1.419649163956158,0.8746920341293046,-0.06163425408924119,0.9276651633350957,1.303348720549783,-0.0344109528721832,-0.08968955951397642,0.8416090561510394,1.607205322636477,0.4768348404929548,0.29759321449686,0.9631119662346392,1.251870271741452,0.2325958435674347,0.6387639522518307,0.7301467089416804,0.9081252582840625,0.1303287498166237,0.2390943956482429,0.8376165678196937,282.4542124542124,692.6373626373627,819.5604395604396,672.893772893773,695.4578754578755,-0.251892,0.035767,0.958069,7.245026,5.667419,0.844879,1,1,2,1,1,70.000000
2023-09-04 18:07:50.041,,,,,,,,,,,,,,,,,,,,,,,,,,,,,,,,,,,,,,/muse/elements/blink
2023-09-04 18:07:50.456,,,,,,,,,,,,,,,,,,,,,,,,,,,,,,,,,,,,,,/muse/elements/blink
2023-09-04 18:07:50.739,1.419649163956158,0.8746920341293046,0.4778930565485097,1.31484214144473,1.303348720549783,-0.0344109528721832,0.2550072376058527,1.173901458444177,1.607205322636477,0.4768348404929548,0.2622240089956361,1.0162614560317,1.251870271741452,0.2325958435674347,0.09260575843655398,0.7208833906926343,0.9081252582840625,0.1303287498166237,0.1264164333264995,0.7968252027791601,539.92673992674,798.2051282051282,785.7142857142858,688.2051282051282,734.9450549450549,-0.370056,0.002197,0.925354,1.532745,-0.224304,-2.272949,1,1,1,1,1,70.000000
2023-09-04 18:07:50.914,,,,,,,,,,,,,,,,,,,,,,,,,,,,,,,,,,,,,,/muse/elements/blink
2023-09-04 18:07:51.351,,,,,,,,,,,,,,,,,,,,,,,,,,,,,,,,,,,,,,/muse/elements/blink
2023-09-04 18:07:51.677,,,,,,,,,,,,,,,,,,,,,,,,,,,,,,,,,,,,,,/muse/elements/blink
2023-09-04 18:07:51.739,0.6608988241601462,0.8746920341293046,0.2871318580154498,0.7961314236210436,0.9675712019208309,-0.0344109528721832,-0.01150847357277614,0.7868224675828059,0.9094160253085921,0.4768348404929548,0.3044844881604616,0.9905846761525708,1.174893871342255,0.2325958435674347,-0.01456418569266891,0.7203870772665019,1.065913724798262,0.1303287498166237,0.00805263960273995,0.5163192799964127,80.18315018315019,647.1062271062272,790.5494505494506,640.6593406593407,760.3296703296703,-0.366394,-0.020386,0.915161,1.188812,-3.215027,0.134583,1,1,1,1,1,70.000000
2023-09-04 18:07:52.049,,,,,,,,,,,,,,,,,,,,,,,,,,,,,,,,,,,,,,/muse/elements/blink
2023-09-04 18:07:52.292,,,,,,,,,,,,,,,,,,,,,,,,,,,,,,,,,,,,,,/muse/elements/blink
2023-09-04 18:07:52.578,,,,,,,,,,,,,,,,,,,,,,,,,,,,,,,,,,,,,,/muse/elements/blink
2023-09-04 18:07:52.743,0.6167382265119893,0.8746920341293046,0.3404623289430964,0.7277441728555798,0.7448914113178642,-0.0344109528721832,-0.01167462656404995,0.6559858296119164,0.8655159723135175,0.4768348404929548,0.1436567388619467,0.979933749571605,1.056537883330019,0.2325958435674347,0.1012983195509549,0.8365847864276907,0.9849908548990611,0.1303287498166237,-0.3108826895303313,0.4009568636725631,450.0732600732601,0,796.5934065934066,691.4285714285714,796.996336996337,-0.170959,-0.073120,0.956665,4.889832,-16.807861,14.385376,1,1,1,1,1,55.000000
2023-09-04 18:07:53.081,,,,,,,,,,,,,,,,,,,,,,,,,,,,,,,,,,,,,,/muse/elements/blink
2023-09-04 18:07:53.746,0.5809743357683601,0.8746920341293046,0.476823486232156,0.9661413997504561,0.6337954876927103,-0.0344109528721832,-0.04045728175697574,0.8448906661041352,0.8026785968188619,0.4768348404929548,0.2222432631505886,0.8192475096184033,1.070219031175211,0.2325958435674347,0.02761242250820874,1.032156803992955,0.9248483809341761,0.1303287498166237,-0.2168643706030814,0.5454178727779028,144.6520146520147,556.0439560439561,794.981684981685,647.5091575091575,602.7838827838827,-0.124695,0.041077,0.983459,0.029907,-2.011261,5.263672,1,1,1,1,1,55.000000
2023-09-04 18:07:54.737,,,,,,,,,,,,,,,,,,,,,,,,,,,,,,,,,,,,,,/muse/elements/blink
2023-09-04 18:07:54.746,0.5809743357683601,0.8746920341293046,0.5867056029459817,0.9817154147529951,0.6337954876927103,-0.0344109528721832,0.04109292226131176,0.7304424629360464,0.8026785968188619,0.4768348404929548,0.2398771671935598,1.112733600067223,1.070219031175211,0.2325958435674347,-0.08186870084994237,1.107572113365417,0.9248483809341761,0.1303287498166237,-0.2966449856812203,0.6013023142856464,0,861.4652014652015,800.6227106227107,631.7948717948718,858.6446886446887,-0.229797,0.150085,0.941406,2.938385,-1.637421,-6.773987,1,1,1,1,1,55.000000
2023-09-04 18:07:55.089,,,,,,,,,,,,,,,,,,,,,,,,,,,,,,,,,,,,,,/muse/elements/blink
2023-09-04 18:07:55.525,,,,,,,,,,,,,,,,,,,,,,,,,,,,,,,,,,,,,,/muse/elements/blink
2023-09-04 18:07:55.739,0.5809743357683601,0.8746920341293046,1.006851069747506,1.46015962654594,0.6337954876927103,-0.0344109528721832,0.4721719626773397,1.04475663010826,0.8026785968188619,0.4768348404929548,0.2934207666134324,1.177897714281104,1.070219031175211,0.2325958435674347,0.05434622523429738,1.055661712964335,0.9248483809341761,0.1303287498166237,-0.3856648097951528,0.6440370850799532,294.1391941391942,602.7838827838827,790.952380952381,635.0183150183151,712.7838827838829,-0.336365,-0.109497,0.923279,0.942078,-4.583282,5.256195,1,1,4,1,1,55.000000
2023-09-04 18:07:56.424,,,,,,,,,,,,,,,,,,,,,,,,,,,,,,,,,,,,,,/muse/elements/blink
2023-09-04 18:07:56.739,0.5809743357683601,0.8746920341293046,0.9503055283617605,1.264915875608335,0.6337954876927103,-0.0344109528721832,0.4674375186411345,0.8040112999171686,0.8026785968188619,0.4768348404929548,0.3968144853507318,0.8742327681040813,1.070219031175211,0.2325958435674347,0.09440168117899422,0.7645549866233425,0.9248483809341761,0.1303287498166237,-0.2245464058300894,0.584086335925235,334.4322344322345,705.5311355311355,791.7582417582418,645.8974358974359,664.4322344322344,-0.343079,-0.060486,0.916321,3.626251,-3.573914,1.330872,1,1,1,1,1,55.000000
2023-09-04 18:07:56.929,,,,,,,,,,,,,,,,,,,,,,,,,,,,,,,,,,,,,,/muse/elements/blink
2023-09-04 18:07:57.171,,,,,,,,,,,,,,,,,,,,,,,,,,,,,,,,,,,,,,/muse/elements/blink
2023-09-04 18:07:57.739,0.5809743357683601,0.8746920341293046,0.4491482733198879,0.7358940356724883,0.6337954876927103,-0.0344109528721832,0.02415022572805518,0.4129137961377729,0.8026785968188619,0.4768348404929548,0.3642435802825452,0.7180758756958361,1.070219031175211,0.2325958435674347,0.0922579274205954,0.6628887184693025,0.9248483809341761,0.1303287498166237,-0.2365298953818252,0.5837774155227309,249.010989010989,0,794.1758241758242,670.0732600732601,722.8571428571429,-0.302673,-0.154175,0.917480,-0.441132,-2.512207,-5.323486,1,1,1,1,1,55.000000
2023-09-04 18:07:57.785,,,,,,,,,,,,,,,,,,,,,,,,,,,,,,,,,,,,,,/muse/elements/blink
2023-09-04 18:07:58.052,,,,,,,,,,,,,,,,,,,,,,,,,,,,,,,,,,,,,,/muse/elements/blink
2023-09-04 18:07:58.471,,,,,,,,,,,,,,,,,,,,,,,,,,,,,,,,,,,,,,/muse/elements/blink
2023-09-04 18:07:58.749,0.5809743357683601,0.8746920341293046,-0.01523756701021502,1.356628889650659,0.6337954876927103,-0.0344109528721832,-0.07094202787205983,1.184411735995607,0.8026785968188619,0.4768348404929548,-0.0634417804898248,1.183830829428801,1.070219031175211,0.2325958435674347,-0.06201866911203455,0.7797052983444792,0.9248483809341761,0.1303287498166237,-0.3241441537537884,0.5004680889155789,171.2454212454213,608.4249084249085,794.981684981685,653.5531135531136,699.8901098901099,-0.345459,-0.088379,0.920471,1.203766,-1.181335,0.508423,1,1,1,1,1,55.000000
2023-09-04 18:07:59.090,,,,,,,,,,,,,,,,,,,,,,,,,,,,,,,,,,,,,,/muse/elements/blink
2023-09-04 18:07:59.379,,,,,,,,,,,,,,,,,,,,,,,,,,,,,,,,,,,,,,/muse/elements/blink
2023-09-04 18:07:59.747,0.9099131971694721,0.8746920341293046,0.3749438014145486,0.9900895350559394,0.8809023225712328,-0.0344109528721832,0.3494647817872673,1.056135536755886,0.9351235568602297,0.4768348404929548,0.3423870622542508,1.172188836534199,1.004533700647569,0.2325958435674347,0.01417699589630506,0.7742298801878896,0.9630945690049556,0.1303287498166237,-0.4149229273481269,0.5827526397304311,450.4761904761905,615.6776556776557,811.0989010989011,742.1978021978023,717.6190476190476,-0.314575,-0.063843,0.941650,-2.684174,1.914062,12.037659,1,1,1,1,1,55.000000
2023-09-04 18:07:59.890,,,,,,,,,,,,,,,,,,,,,,,,,,,,,,,,,,,,,,/muse/elements/blink
2023-09-04 18:08:00.065,,,,,,,,,,,,,,,,,,,,,,,,,,,,,,,,,,,,,,/muse/elements/blink
2023-09-04 18:08:00.739,0.9785025409095318,0.8746920341293046,1.138503925389348,0.3108953480486664,0.8983814854041887,-0.0344109528721832,0.7624654015372024,1.190833164063079,0.9204186270655031,0.4768348404929548,0.4477899092998221,0.9134786384667738,1.009727176067374,0.2325958435674347,0.09367559428002573,0.6677536414032577,0.8709394680188322,0.1303287498166237,-0.09973211179668799,0.5798780811790241,394.0659340659341,709.9633699633699,791.7582417582418,738.1684981684982,768.7912087912088,-0.357727,-0.031555,0.921265,2.504730,-4.972076,-0.388794,1,1,1,1,1,55.000000
2023-09-04 18:08:01.190,,,,,,,,,,,,,,,,,,,,,,,,,,,,,,,,,,,,,,/muse/elements/blink
2023-09-04 18:08:01.434,,,,,,,,,,,,,,,,,,,,,,,,,,,,,,,,,,,,,,/muse/elements/blink
2023-09-04 18:08:01.739,0.9785025409095318,0.8746920341293046,1.057727586947501,0.3108953480486664,0.8983814854041887,-0.0344109528721832,0.6376528589365305,1.190833164063079,0.9204186270655031,0.4768348404929548,0.4001059832555043,0.9134786384667738,1.009727176067374,0.2325958435674347,0.1606873786822512,0.6677536414032577,0.8709394680188322,0.1303287498166237,-0.1931316860706845,0.5798780811790241,549.1941391941392,482.7106227106227,796.5934065934066,766.7765567765568,782.893772893773,-0.239258,-0.109619,0.951294,-3.618774,-10.288086,-26.804352,1,1,1,1,1,55.000000
2023-09-04 18:08:02.739,0.9785025409095318,0.8746920341293046,0.1190577399500412,0.3108953480486664,0.8983814854041887,-0.0344109528721832,0.009812332492704728,1.190833164063079,0.9204186270655031,0.4768348404929548,0.1711078626050208,0.9134786384667738,1.009727176067374,0.2325958435674347,0.1147990575711232,0.6677536414032577,0.8709394680188322,0.1303287498166237,-0.3711508000511359,0.5798780811790241,314.2857142857143,292.9304029304029,795.7875457875458,724.8717948717949,846.5567765567765,-0.253052,-0.137146,0.942688,8.957214,1.099091,25.510864,1,2,1,1,2,55.000000
2023-09-04 18:08:02.752,,,,,,,,,,,,,,,,,,,,,,,,,,,,,,,,,,,,,,/muse/elements/blink
2023-09-04 18:08:03.739,0.9785025409095318,0.8746920341293046,0.3821598443882357,1.12196200877386,0.8983814854041887,-0.0344109528721832,0.002138062322884372,0.5661175415616693,0.9204186270655031,0.4768348404929548,0.3153076851242569,1.238600126800983,1.009727176067374,0.2325958435674347,-0.1477514259285501,0.8479355386891722,0.8709394680188322,0.1303287498166237,-0.3604808459563198,0.3143111819280969,1133.846153846154,819.1575091575091,799.4139194139194,875.1648351648352,790.1465201465202,-0.241028,-0.005188,0.948303,-3.342133,-0.007477,-6.467438,1,1,4,1,1,65.000000
2023-09-04 18:08:04.044,,,,,,,,,,,,,,,,,,,,,,,,,,,,,,,,,,,,,,/muse/elements/blink
2023-09-04 18:08:04.738,0.9785025409095318,0.8746920341293046,0.1649882067298933,0.9899255606718224,0.8983814854041887,-0.0344109528721832,0.2230011992238244,1.298653178189433,0.9204186270655031,0.4768348404929548,0.3071164370420847,1.414776351103983,1.009727176067374,0.2325958435674347,0.2232635146155822,0.7311632380937872,0.8709394680188322,0.1303287498166237,-0.1947564399049374,0.493475858763757,1167.692307692308,1625.018315018315,798.2051282051282,897.3260073260074,871.1355311355312,-0.460693,0.056458,0.898010,-8.605804,12.979736,-3.581390,1,1,2,1,1,65.000000
2023-09-04 18:08:05.722,,,,,,,,,,,,,,,,,,,,,,,,,,,,,,,,,,,,,,/muse/elements/blink
2023-09-04 18:08:05.739,0.9785025409095318,0.8746920341293046,0.05891304350482597,0.8863511162706217,0.8983814854041887,-0.0344109528721832,0.2465616256762216,1.245891195764192,0.9204186270655031,0.4768348404929548,0.3443206543468568,1.382343740973352,1.009727176067374,0.2325958435674347,0.4835051023365708,0.7098371461032451,0.8709394680188322,0.1303287498166237,0.3019201990436419,0.4887001540815805,1119.74358974359,902.5641025641025,790.5494505494506,879.1941391941392,894.1025641025641,-0.551270,-0.092590,0.793579,2.056122,-3.977661,3.162689,1,4,2,1,1,65.000000
2023-09-04 18:08:06.747,0.9785025409095318,0.8746920341293046,-0.3017324401419383,0.8370770561626998,0.8983814854041887,-0.0344109528721832,0.1167313181493913,0.719121524709323,0.9204186270655031,0.4768348404929548,-0.05757639893370069,1.041727333895064,1.009727176067374,0.2325958435674347,0.1559755713401542,0.677975898179493,0.8709394680188322,0.1303287498166237,0.08185046696966006,0.4925745943323623,93.07692307692308,763.1501831501831,786.5201465201466,969.047619047619,880.4029304029305,-0.312927,0.020264,0.958496,7.895508,-18.131256,3.237457,1,4,2,1,1,65.000000
2023-09-04 18:08:07.739,0.9785025409095318,0.8746920341293046,-0.02893536798944223,0.9216266163836494,0.8983814854041887,-0.0344109528721832,0.1545594613318131,0.7820050568739744,0.9204186270655031,0.4768348404929548,-0.08794697708274943,1.119318133375228,1.009727176067374,0.2325958435674347,-0.08693533878514303,0.6934752074214873,0.8709394680188322,0.1303287498166237,-0.2622178291657608,0.4976606086463762,62.45421245421245,938.021978021978,772.8205128205128,949.7069597069598,840.9157509157509,-0.305725,-0.076721,0.932861,-9.069366,-3.529053,-21.488342,1,4,1,1,1,65.000000
2023-09-04 18:08:07.809,,,,,,,,,,,,,,,,,,,,,,,,,,,,,,,,,,,,,,/muse/elements/blink
2023-09-04 18:08:08.210,,,,,,,,,,,,,,,,,,,,,,,,,,,,,,,,,,,,,,/muse/elements/blink
2023-09-04 18:08:08.516,,,,,,,,,,,,,,,,,,,,,,,,,,,,,,,,,,,,,,/muse/elements/blink
2023-09-04 18:08:08.743,0.9785025409095318,0.8746920341293046,0.6310403307980587,0.6463165897267782,0.8983814854041887,-0.0344109528721832,0.2805631251914002,0.7673501395415854,0.9204186270655031,0.4768348404929548,0.1782926846114906,0.6184787796212264,1.009727176067374,0.2325958435674347,-0.07621746729758329,0.8717338651047931,0.8709394680188322,0.1303287498166237,-0.2514676561696984,0.2533216733686693,1555.311355311355,859.8534798534798,786.9230769230769,947.2893772893773,799.8168498168499,-0.278992,-0.146851,0.936829,0.904694,-7.005768,-9.136658,1,1,1,1,1,65.000000
2023-09-04 18:08:09.739,0.9785025409095318,0.8746920341293046,0.5993803743025011,0.6033327599850514,0.8983814854041887,-0.0344109528721832,0.2438831168709679,0.8159924612685749,0.9204186270655031,0.4768348404929548,0.5284352334939917,0.527972558653359,1.009727176067374,0.2325958435674347,0.247419384879926,0.8863653226223263,0.8709394680188322,0.1303287498166237,0.04174095821914646,0.251299712004228,1230.14652014652,838.0952380952381,790.5494505494506,855.4212454212454,882.014652014652,-0.282227,-0.094604,0.956726,3.521576,-3.932800,-0.067291,1,1,1,1,1,65.000000
2023-09-04 18:08:09.979,,,,,,,,,,,,,,,,,,,,,,,,,,,,,,,,,,,,,,/muse/elements/blink
2023-09-04 18:08:10.739,0.4927753356878743,0.8746920341293046,0.2273127359016931,0.6977893805905222,0.4852961443069676,-0.0344109528721832,0.01809999750759803,0.6078937849832521,0.8240038319088517,0.4768348404929548,0.3977287906184143,0.9460557105348369,0.7278001127796231,0.2325958435674347,0.05467676714957839,0.5256524728553237,0.9523670867480774,0.1303287498166237,-0.3096944987134939,0.3615387026897982,1343.772893772894,1013.369963369963,793.3699633699634,870.7326007326008,745.0183150183151,-0.330383,-0.061279,0.924133,3.514099,1.435547,0.239258,1,1,1,1,1,65.000000
2023-09-04 18:08:10.855,,,,,,,,,,,,,,,,,,,,,,,,,,,,,,,,,,,,,,/muse/elements/blink
2023-09-04 18:08:11.037,,,,,,,,,,,,,,,,,,,,,,,,,,,,,,,,,,,,,,/muse/elements/blink
2023-09-04 18:08:11.257,,,,,,,,,,,,,,,,,,,,,,,,,,,,,,,,,,,,,,/muse/elements/blink
2023-09-04 18:08:11.455,,,,,,,,,,,,,,,,,,,,,,,,,,,,,,,,,,,,,,/muse/elements/blink
2023-09-04 18:08:11.740,0.4658940124259434,0.8746920341293046,0.05369302465213963,0.869408118938269,0.4346276283768491,-0.0344109528721832,-0.152472341835626,0.873930844409381,0.9046856825604531,0.4768348404929548,0.07381436677609519,1.209410035332196,0.9936683151082321,0.2325958435674347,0.009424491879028577,0.7063228582688756,1.014870703331108,0.1303287498166237,-0.2168211214067284,0.3598911035528892,626.5567765567765,500.4395604395605,788.9377289377289,736.5567765567765,733.3333333333334,-0.283142,-0.133728,0.933228,-11.484375,-5.383301,-20.336914,1,1,1,1,1,65.000000
2023-09-04 18:08:12.077,,,,,,,,,,,,,,,,,,,,,,,,,,,,,,,,,,,,,,/muse/elements/blink
2023-09-04 18:08:12.254,,,,,,,,,,,,,,,,,,,,,,,,,,,,,,,,,,,,,,/muse/elements/blink
2023-09-04 18:08:12.580,,,,,,,,,,,,,,,,,,,,,,,,,,,,,,,,,,,,,,/muse/elements/blink
2023-09-04 18:08:12.738,0.4631318841587,0.8746920341293046,0.1018711799685392,1.112846505100049,0.4712297401573834,-0.0344109528721832,-0.2620449047288697,0.9288867477646365,0.8321959524653456,0.4768348404929548,0.09362109621366296,1.113432376101348,1.140345561145513,0.2325958435674347,-0.103182250014231,0.7334370740556034,1.042278021318902,0.1303287498166237,-0.3694210599966696,0.3929895162226317,769.5970695970697,784.9084249084249,788.5347985347986,772.8205128205128,791.3553113553114,-0.309021,-0.027100,0.940613,0.478516,-2.773895,-1.188812,1,1,1,1,1,65.000000
2023-09-04 18:08:12.777,,,,,,,,,,,,,,,,,,,,,,,,,,,,,,,,,,,,,,/muse/elements/blink
2023-09-04 18:08:13.199,,,,,,,,,,,,,,,,,,,,,,,,,,,,,,,,,,,,,,/muse/elements/blink
2023-09-04 18:08:13.376,,,,,,,,,,,,,,,,,,,,,,,,,,,,,,,,,,,,,,/muse/elements/blink
2023-09-04 18:08:13.739,0.4631318841587,0.8746920341293046,-0.1400322069355645,0.1890459126752683,0.4712297401573834,-0.0344109528721832,-0.0731268604709415,0.458275574798202,0.8321959524653456,0.4768348404929548,0.1099610531592158,0.7456046440117979,1.140345561145513,0.2325958435674347,0.07590719148680043,0.6268990266991274,1.042278021318902,0.1303287498166237,-0.46470274244965,0.2948234642108759,851.3919413919414,786.5201465201466,808.6813186813187,784.9084249084249,745.8241758241759,-0.338501,-0.083374,0.935791,-5.061798,-0.912170,4.321594,1,1,1,1,1,65.000000
2023-09-04 18:08:14.497,,,,,,,,,,,,,,,,,,,,,,,,,,,,,,,,,,,,,,/muse/elements/blink
2023-09-04 18:08:14.750,0.4631318841587,0.8746920341293046,0.1121011651921179,1.13178838907731,0.4712297401573834,-0.0344109528721832,-0.08536995454539931,0.7148455010379493,0.8321959524653456,0.4768348404929548,0.2787297881565727,1.029297799945872,1.140345561145513,0.2325958435674347,0.2142061115409457,0.6932253794482564,1.042278021318902,0.1303287498166237,-0.09151806407900701,0.4964577577026381,89.45054945054946,731.7216117216118,801.8315018315019,656.7765567765568,813.5164835164835,-0.341370,0.025574,0.926331,0.515900,-3.633728,-0.643005,1,4,1,1,1,65.000000
2023-09-04 18:08:15.738,0.4631318841587,0.8746920341293046,0.2007348945098482,0.9732072212487156,0.4712297401573834,-0.0344109528721832,0.01475339340890691,0.5134555204506077,0.8321959524653456,0.4768348404929548,0.1446079854092543,1.025945651183853,1.140345561145513,0.2325958435674347,0.07884663605723656,0.6915286229334873,1.042278021318902,0.1303287498166237,-0.0854550328533886,0.5129353314937465,234.1025641025641,686.1904761904763,790.5494505494506,689.0109890109891,618.4981684981685,-0.307861,0.035400,0.944885,11.514282,-7.648773,-23.798676,1,4,1,1,1,65.000000
2023-09-04 18:08:15.812,,,,,,,,,,,,,,,,,,,,,,,,,,,,,,,,,,,,,,/muse/elements/blink
2023-09-04 18:08:16.738,0.4631318841587,0.8746920341293046,0.7708635941762199,0.8512709039196309,0.4712297401573834,-0.0344109528721832,0.3421854087370172,0.6336315926031144,0.8321959524653456,0.4768348404929548,0.5283149660461142,0.7118169164012663,1.140345561145513,0.2325958435674347,-0.06248617410157136,0.6001728931484172,1.042278021318902,0.1303287498166237,-0.2695770685657635,0.5119598405957611,373.5164835164835,728.4981684981685,779.2673992673992,668.8644688644689,656.7765567765568,-0.324768,-0.037537,0.927612,4.919739,-5.787048,-0.157013,1,1,1,1,1,65.000000
2023-09-04 18:08:17.386,,,,,,,,,,,,,,,,,,,,,,,,,,,,,,,,,,,,,,/muse/elements/blink
2023-09-04 18:08:17.738,0.4631318841587,0.8746920341293046,0.905438534624207,0.7315541920120922,0.4712297401573834,-0.0344109528721832,0.3226085028238098,0.5666983604774369,0.8321959524653456,0.4768348404929548,0.4567095972382187,0.6867376364634882,1.140345561145513,0.2325958435674347,-0.1081453381310296,0.6811362379213846,1.042278021318902,0.1303287498166237,-0.4603086168473897,0.305628688226326,400.9157509157509,699.4871794871796,795.7875457875458,693.040293040293,695.0549450549451,-0.310425,-0.039001,0.943542,-2.474823,-7.783356,-4.284210,1,1,1,1,1,65.000000
2023-09-04 18:08:18.738,0.5826355899354103,0.8746920341293046,0.4523428196437977,0.3984326251781009,0.4295854972599239,-0.0344109528721832,0.2377733013973609,0.3722154995766331,0.70248152433807,0.4768348404929548,0.1436683580282823,0.7403456797138391,0.9503332660719565,0.2325958435674347,-0.1441863388601391,0.7870795186449282,0.9028928904008366,0.1303287498166237,-0.6226689503919363,0.1746951174473505,66.48351648351648,652.7472527472528,794.1758241758242,632.1978021978022,709.5604395604396,-0.314087,0.026550,0.943237,2.108459,-3.865509,0.366364,1,1,1,1,1,65.000000
2023-09-04 18:08:19.718,,,,,,,,,,,,,,,,,,,,,,,,,,,,,,,,,,,,,,/muse/elements/blink
2023-09-04 18:08:19.738,0.499500045562961,0.8746920341293046,0.2208097147792708,0.4689795350409481,0.3977330997059932,-0.0344109528721832,0.03778273347464171,0.3339879646080083,0.6413682004773049,0.4768348404929548,0.225134872950675,0.6001814225398298,0.8679879500687875,0.2325958435674347,0.04266031791442638,0.6114509070287574,0.8902553062844271,0.1303287498166237,-0.4612684193503234,0.4035101289796335,176.4835164835165,618.0952380952381,802.6373626373627,691.025641025641,700.2930402930403,-0.379395,-0.009827,0.894653,1.315918,5.757141,-12.890015,1,1,1,1,1,65.000000
2023-09-04 18:08:19.895,,,,,,,,,,,,,,,,,,,,,,,,,,,,,,,,,,,,,,/muse/elements/blink
2023-09-04 18:08:20.181,,,,,,,,,,,,,,,,,,,,,,,,,,,,,,,,,,,,,,/muse/elements/blink
2023-09-04 18:08:20.747,1.314112565793681,0.8746920341293046,0.9282352558872581,0.5646322356480019,1.44633231413397,-0.0344109528721832,0.7203296631034516,0.03664154438529497,1.055529097939713,0.4768348404929548,0.6304312852864615,0.5838755576432048,0.9624796468960809,0.2325958435674347,0.4019319602286586,0.5693813953507008,1.010160612432269,0.1303287498166237,0.1399971030047189,0.6182528434439177,560.4761904761905,834.4688644688645,790.1465201465202,764.7619047619048,705.5311355311355,-0.375549,-0.005676,0.906860,9.099274,-4.089813,12.800293,1,1,1,1,1,65.000000
2023-09-04 18:08:21.738,0.927663648346994,0.8746920341293046,0.5704030418610465,1.124865408405588,0.7095675138002725,-0.0344109528721832,0.2994489855380564,0.4859324145744464,0.9303238182115273,0.4768348404929548,0.4866208602995931,0.8837625906818102,0.874204420774604,0.2325958435674347,0.2231322201187419,0.5813244502236815,0.9513450481866119,0.1303287498166237,-0.003571827104618296,0.385842076065006,475.4578754578754,716.8131868131868,796.996336996337,766.7765567765568,904.981684981685,-0.375000,0.024292,0.929749,3.424377,-4.299164,2.564545,1,1,1,1,1,65.000000
2023-09-04 18:08:22.141,,,,,,,,,,,,,,,,,,,,,,,,,,,,,,,,,,,,,,/muse/elements/blink
2023-09-04 18:08:22.535,,,,,,,,,,,,,,,,,,,,,,,,,,,,,,,,,,,,,,/muse/elements/blink
2023-09-04 18:08:22.746,0.8284816645732861,0.8746920341293046,0.1765644340704025,0.8783403858176949,0.7509031536315525,-0.0344109528721832,-0.2198441614281704,0.5679657810596264,1.083625836889029,0.4768348404929548,0.3662146944812753,1.046326300043132,0.9764556534285307,0.2325958435674347,0.1088224224094093,0.5781508828724435,0.9930821278336883,0.1303287498166237,-0.3260869822561837,0.3313156147199918,423.0769230769231,977.5091575091575,805.0549450549451,757.9120879120879,723.6630036630037,-0.445740,0.038330,0.884827,9.218903,3.887939,3.170166,1,1,1,1,1,65.000000
2023-09-04 18:08:22.931,,,,,,,,,,,,,,,,,,,,,,,,,,,,,,,,,,,,,,/muse/elements/jaw_clench
2023-09-04 18:08:23.128,,,,,,,,,,,,,,,,,,,,,,,,,,,,,,,,,,,,,,/muse/elements/jaw_clench
2023-09-04 18:08:23.475,,,,,,,,,,,,,,,,,,,,,,,,,,,,,,,,,,,,,,/muse/elements/jaw_clench
2023-09-04 18:08:23.736,,,,,,,,,,,,,,,,,,,,,,,,,,,,,,,,,,,,,,/muse/elements/jaw_clench
2023-09-04 18:08:23.746,1.054328851444554,0.8746920341293046,0.6536616620228268,0.9818008270326199,1.056067369513443,-0.0344109528721832,0.3444878767280832,1.096687805888592,1.178322228472714,0.4768348404929548,0.6085269555455565,1.328594016121375,1.03655952688801,0.2325958435674347,0.3426995300832048,0.9602468885884412,0.9886320109655407,0.1303287498166237,0.1083749905602714,0.4724348240155252,1107.655677655678,546.7765567765568,806.2637362637363,878.3882783882784,624.1391941391942,-0.427002,-0.200989,0.869690,1.315918,-3.992615,5.293579,1,1,1,1,1,70.000000
2023-09-04 18:08:24.172,,,,,,,,,,,,,,,,,,,,,,,,,,,,,,,,,,,,,,/muse/elements/blink
2023-09-04 18:08:24.738,1.171787334893719,0.8746920341293046,0.6100818869882212,0.5808350181228402,1.126098210132495,-0.0344109528721832,0.3594858951674078,0.4395532445935718,1.109250848535141,0.4768348404929548,0.3660378309628308,0.7491272496764252,1.02198014705815,0.2325958435674347,0.1394103031137986,1.108560574086821,0.9362263529863126,0.1303287498166237,0.08808877033529403,0.6290232286566304,986.3736263736264,1232.564102564103,792.5641025641025,843.3333333333334,812.3076923076924,-0.457581,0.009766,0.875610,-0.246735,-2.743988,5.465546,1,4,4,1,1,70.000000
2023-09-04 18:08:25.567,,,,,,,,,,,,,,,,,,,,,,,,,,,,,,,,,,,,,,/muse/elements/blink
2023-09-04 18:08:25.567,,,,,,,,,,,,,,,,,,,,,,,,,,,,,,,,,,,,,,/muse/elements/jaw_clench
2023-09-04 18:08:25.738,1.171787334893719,0.8746920341293046,0.2960387101618376,0.6429586656176267,1.126098210132495,-0.0344109528721832,0.05821199754929011,0.4613031633195102,1.109250848535141,0.4768348404929548,0.3677754898406953,0.7754212805137179,1.02198014705815,0.2325958435674347,-0.0637206472796543,0.613867736019662,0.9362263529863126,0.1303287498166237,-0.184595105799503,0.5316975559275084,872.3443223443223,137.8021978021978,804.6520146520147,834.0659340659341,780.4761904761905,-0.356445,-0.012756,0.901062,4.575806,-6.430054,13.719940,1,4,4,1,1,70.000000
2023-09-04 18:08:26.001,,,,,,,,,,,,,,,,,,,,,,,,,,,,,,,,,,,,,,/muse/elements/blink
2023-09-04 18:08:26.738,1.171787334893719,0.8746920341293046,0.3464492667029016,0.540520621450798,1.126098210132495,-0.0344109528721832,-0.01308355083514185,0.5409559990176069,1.109250848535141,0.4768348404929548,0.4740607193295838,0.7417525974363953,1.02198014705815,0.2325958435674347,0.154995356022825,0.4646200162508787,0.9362263529863126,0.1303287498166237,-0.1536437159263687,0.5391916576565868,752.2710622710623,796.996336996337,796.5934065934066,800.6227106227107,794.1758241758242,-0.376160,0.072083,0.922607,3.618774,-8.800201,2.407532,1,4,4,1,1,70.000000
2023-09-04 18:08:27.111,,,,,,,,,,,,,,,,,,,,,,,,,,,,,,,,,,,,,,/muse/elements/blink
2023-09-04 18:08:27.738,1.171787334893719,0.8746920341293046,0.3967421751306538,0.540520621450798,1.126098210132495,-0.0344109528721832,-0.2128515015774191,0.5409559990176069,1.109250848535141,0.4768348404929548,0.03201510335919587,0.7417525974363953,1.02198014705815,0.2325958435674347,0.2027801301839274,0.4646200162508787,0.9362263529863126,0.1303287498166237,-0.1767576821790781,0.5391916576565868,1528.315018315018,331.6117216117216,794.5787545787546,931.1721611721612,845.7509157509157,-0.335693,-0.115662,0.875122,4.590759,4.643097,6.938477,1,4,4,1,1,70.000000
2023-09-04 18:08:28.424,,,,,,,,,,,,,,,,,,,,,,,,,,,,,,,,,,,,,,/muse/elements/blink
2023-09-04 18:08:28.744,1.171787334893719,0.8746920341293046,0.4509176516681048,1.042153389566644,1.126098210132495,-0.0344109528721832,-0.1416250451144739,0.5582848862884907,1.109250848535141,0.4768348404929548,0.1077705218384248,0.8599308482346639,1.02198014705815,0.2325958435674347,-0.06424382857932687,0.5534263828433047,0.9362263529863126,0.1303287498166237,-0.4507603602476272,0.4331870600648422,1367.545787545788,931.1721611721612,792.1611721611722,915.8608058608058,756.3003663003664,-0.460388,-0.059814,0.874756,-3.588867,-3.686066,-8.605804,1,4,2,1,1,70.000000
2023-09-04 18:08:29.301,,,,,,,,,,,,,,,,,,,,,,,,,,,,,,,,,,,,,,/muse/elements/blink
2023-09-04 18:08:29.541,,,,,,,,,,,,,,,,,,,,,,,,,,,,,,,,,,,,,,/muse/elements/blink
2023-09-04 18:08:29.739,,,,,,,,,,,,,,,,,,,,,,,,,,,,,,,,,,,,,,/muse/elements/blink
2023-09-04 18:08:29.740,1.171787334893719,0.8746920341293046,0.2977514932248946,0.923225941165606,1.126098210132495,-0.0344109528721832,-0.09745413572002926,0.6123328209736179,1.109250848535141,0.4768348404929548,0.04399243443794407,0.807090940255311,1.02198014705815,0.2325958435674347,0.007382040896614524,0.6483076732034042,0.9362263529863126,0.1303287498166237,-0.344245189942317,0.3767754758606776,62.05128205128205,929.5604395604396,787.3260073260074,942.0512820512821,854.6153846153846,-0.296448,0.174194,0.942200,16.119995,-13.592834,19.985504,1,4,2,1,1,70.000000
2023-09-04 18:08:29.937,,,,,,,,,,,,,,,,,,,,,,,,,,,,,,,,,,,,,,/muse/elements/blink
2023-09-04 18:08:30.353,,,,,,,,,,,,,,,,,,,,,,,,,,,,,,,,,,,,,,/muse/elements/blink
2023-09-04 18:08:30.738,1.171787334893719,0.8746920341293046,0.185308784031348,0.8528655972058562,1.126098210132495,-0.0344109528721832,-0.05049430969726239,0.6396476274409303,1.109250848535141,0.4768348404929548,0.2049457546057751,0.7398903410917753,1.02198014705815,0.2325958435674347,0.1679365478547042,0.7672559015924123,0.9362263529863126,0.1303287498166237,-0.2960366861031269,0.2699277492430303,1501.721611721612,1020.21978021978,796.1904761904763,940.0366300366301,901.3553113553114,-0.229919,-0.036804,0.948608,-22.363129,-6.497345,-38.909302,1,4,2,1,1,70.000000
2023-09-04 18:08:30.966,,,,,,,,,,,,,,,,,,,,,,,,,,,,,,,,,,,,,,/muse/elements/blink
2023-09-04 18:08:31.742,1.171787334893719,0.8746920341293046,0.5345714680502429,0.8717734315780422,1.126098210132495,-0.0344109528721832,0.2812251694757646,0.7348883432832548,1.109250848535141,0.4768348404929548,0.5801831417055353,0.7128371182124008,1.02198014705815,0.2325958435674347,0.6141752057652764,0.7983227409152132,0.9362263529863126,0.1303287498166237,0.4284748524637778,0.224815100891225,1416.300366300366,40.6959706959707,767.985347985348,912.2344322344322,808.6813186813187,-0.240479,-0.101318,0.959473,12.830200,3.783264,-5.517883,1,4,4,1,1,70.000000
2023-09-04 18:08:31.885,,,,,,,,,,,,,,,,,,,,,,,,,,,,,,,,,,,,,,/muse/elements/blink
2023-09-04 18:08:32.169,,,,,,,,,,,,,,,,,,,,,,,,,,,,,,,,,,,,,,/muse/elements/blink
2023-09-04 18:08:32.366,,,,,,,,,,,,,,,,,,,,,,,,,,,,,,,,,,,,,,/muse/elements/blink
2023-09-04 18:08:32.747,1.171787334893719,0.8746920341293046,0.6884208514053333,0.8717734315780422,1.126098210132495,-0.0344109528721832,0.39467945150648,0.7348883432832548,1.109250848535141,0.4768348404929548,0.5175820998055365,0.7128371182124008,1.02198014705815,0.2325958435674347,0.830717463195113,0.7983227409152132,0.9362263529863126,0.1303287498166237,0.7226394511023905,0.224815100891225,1104.835164835165,729.3040293040293,791.3553113553114,844.5421245421246,773.6263736263736,-0.211731,0.222473,0.936584,-7.506714,-20.120087,-7.865601,1,2,4,1,2,70.000000
2023-09-04 18:08:32.782,,,,,,,,,,,,,,,,,,,,,,,,,,,,,,,,,,,,,,/muse/elements/blink
2023-09-04 18:08:33.217,,,,,,,,,,,,,,,,,,,,,,,,,,,,,,,,,,,,,,/muse/elements/jaw_clench
2023-09-04 18:08:33.396,,,,,,,,,,,,,,,,,,,,,,,,,,,,,,,,,,,,,,/muse/elements/jaw_clench
2023-09-04 18:08:33.738,1.171787334893719,0.8746920341293046,0.4123098054221477,0.8717734315780422,1.126098210132495,-0.0344109528721832,0.5082131038637518,0.7348883432832548,1.109250848535141,0.4768348404929548,0.5015686446924146,0.7128371182124008,1.02198014705815,0.2325958435674347,0.3983767866323129,0.7983227409152132,0.9362263529863126,0.1303287498166237,-0.1760733768524887,0.224815100891225,1109.67032967033,749.4505494505495,761.5384615384615,850.1831501831502,754.2857142857143,-0.092896,0.044556,0.977905,3.887939,-3.155212,-1.562653,1,2,4,1,2,70.000000
2023-09-04 18:08:33.922,,,,,,,,,,,,,,,,,,,,,,,,,,,,,,,,,,,,,,/muse/elements/jaw_clench
2023-09-04 18:08:34.099,,,,,,,,,,,,,,,,,,,,,,,,,,,,,,,,,,,,,,/muse/elements/jaw_clench
2023-09-04 18:08:34.515,,,,,,,,,,,,,,,,,,,,,,,,,,,,,,,,,,,,,,/muse/elements/jaw_clench
2023-09-04 18:08:34.624,,,,,,,,,,,,,,,,,,,,,,,,,,,,,,,,,,,,,,/muse/elements/blink
2023-09-04 18:08:34.737,1.171787334893719,0.8746920341293046,0.7494110822951231,1.073804321003058,1.126098210132495,-0.0344109528721832,0.4713407158996427,0.9592937149704147,1.109250848535141,0.4768348404929548,0.4432302316054738,0.9289664388877668,1.02198014705815,0.2325958435674347,0.2213000374838789,0.7488141230002575,0.9362263529863126,0.1303287498166237,-0.1409086239909092,0.2252814264040698,1093.553113553114,226.0439560439561,753.8827838827839,863.8827838827839,759.92673992674,-0.019409,0.095581,0.984741,6.579590,-0.568237,3.454285,1,1,2,1,1,65.000000
2023-09-04 18:08:35.042,,,,,,,,,,,,,,,,,,,,,,,,,,,,,,,,,,,,,,/muse/elements/jaw_clench
2023-09-04 18:08:35.310,,,,,,,,,,,,,,,,,,,,,,,,,,,,,,,,,,,,,,/muse/elements/blink
2023-09-04 18:08:35.638,,,,,,,,,,,,,,,,,,,,,,,,,,,,,,,,,,,,,,/muse/elements/blink
2023-09-04 18:08:35.738,1.171787334893719,0.8746920341293046,1.040639440406504,0.8293202230598005,1.126098210132495,-0.0344109528721832,0.5028656758987166,0.6835664709329708,1.109250848535141,0.4768348404929548,0.03083403085500373,0.5351857493135139,1.02198014705815,0.2325958435674347,-0.001607670674071971,0.5811464996964231,0.9362263529863126,0.1303287498166237,-0.01777976159773023,0.2931237101848803,1208.388278388278,1085.494505494506,793.3699633699634,898.5347985347986,864.2857142857143,-0.311035,0.135986,0.930847,2.751465,0.059814,3.020630,1,1,1,1,1,65.000000
2023-09-04 18:08:35.924,,,,,,,,,,,,,,,,,,,,,,,,,,,,,,,,,,,,,,/muse/elements/blink
