TimeStamp,Delta_TP9,Delta_AF7,Delta_AF8,Delta_TP10,Theta_TP9,Theta_AF7,Theta_AF8,Theta_TP10,Alpha_TP9,Alpha_AF7,Alpha_AF8,Alpha_TP10,Beta_TP9,Beta_AF7,Beta_AF8,Beta_TP10,Gamma_TP9,Gamma_AF7,Gamma_AF8,Gamma_TP10,RAW_TP9,RAW_AF7,RAW_AF8,RAW_TP10,AUX_RIGHT,Accelerometer_X,Accelerometer_Y,Accelerometer_Z,Gyro_X,Gyro_Y,Gyro_Z,HeadBandOn,HSI_TP9,HSI_AF7,HSI_AF8,HSI_TP10,Battery,Elements
2023-09-08 13:13:39.544,,,,,,,,,,,,,,,,,,,,,,,,,,,,,,,,,,,,,,/muse/event/connected Muse-D424
2023-09-08 13:13:39.594,,,,,,,,,,,,,,,,,,,,,,,,,,,,,,,,,,,,,,/muse/elements/blink
2023-09-08 13:13:39.601,,,,,,,,,,,,,,,,,,,,,,,,,,,,,,,,,,,,,,/muse/elements/jaw_clench
2023-09-08 13:13:39.606,,,,,,,,,,,,,,,,,,,,,,,,,,,,,,,,,,,,,,/muse/elements/blink
2023-09-08 13:13:39.612,,,,,,,,,,,,,,,,,,,,,,,,,,,,,,,,,,,,,,/muse/elements/blink
2023-09-08 13:13:39.615,,,,,,,,,,,,,,,,,,,,,,,,,,,,,,,,,,,,,,/muse/elements/blink
2023-09-08 13:13:39.660,,,,,,,,,,,,,,,,,,,,,,,,,,,,,,,,,,,,,,/muse/elements/blink
2023-09-08 13:13:39.918,,,,,,,,,,,,,,,,,,,,,,,,,,,,,,,,,,,,,,/muse/elements/blink
2023-09-08 13:13:40.093,,,,,,,,,,,,,,,,,,,,,,,,,,,,,,,,,,,,,,/muse/elements/blink
2023-09-08 13:13:40.204,,,,,,,,,,,,,,,,,,,,,,,,,,,,,,,,,,,,,,/muse/elements/jaw_clench
2023-09-08 13:13:40.293,,,,,,,,,,,,,,,,,,,,,,,,,,,,,,,,,,,,,,/muse/elements/blink
2023-09-08 13:13:40.545,0.1003126322469154,0.4453518809717378,-0.1219378621606764,0.6294274842375069,0.7318910150275914,0.111392668472894,-0.2171475380104188,0.9137207807423017,0.8221650050005974,0.4780088378623976,0.06614081900225906,0.765541096922737,0.627286317934339,-0.2178222628593698,-0.1621427018910039,0.6751620982739199,0.4624680767934554,-0.5586469399743044,-0.4026413945395754,0.3928015450222583,283.6630036630037,862.2710622710623,746.6300366300367,699.8901098901099,689.4139194139194,-0.410889,0.102661,0.906799,10.273132,22.049103,1.465454,1,1,1,1,1,100.000000
2023-09-08 13:13:41.545,-0.02929491577895484,0.6102829994045131,0.1777937570228457,0.7246091795482796,0.974114679922506,0.2807435071030161,0.05237631673442903,1.101410885718042,0.6355644398176368,0.4362810523308409,0.03030663573695945,0.536563106925427,0.5589213861096746,-0.3373733404902092,-0.07226614052299137,0.7647265127717907,0.391144889694996,-0.5194080803128603,-0.2465820329168529,0.1351194602416695,0,787.3260073260074,755.8974358974359,666.8498168498169,561.2820512820513,-0.507690,0.092163,0.849121,24.748230,-44.270172,-41.301880,1,4,1,1,1,100.000000
2023-09-08 13:13:41.647,,,,,,,,,,,,,,,,,,,,,,,,,,,,,,,,,,,,,,/muse/elements/blink
2023-09-08 13:13:41.868,,,,,,,,,,,,,,,,,,,,,,,,,,,,,,,,,,,,,,/muse/elements/blink
2023-09-08 13:13:42.350,,,,,,,,,,,,,,,,,,,,,,,,,,,,,,,,,,,,,,/muse/elements/blink
2023-09-08 13:13:42.545,-0.02929491577895484,0.6102829994045131,0.1777937570228457,0.7246091795482796,0.974114679922506,0.2807435071030161,0.05237631673442903,1.101410885718042,0.6355644398176368,0.4362810523308409,0.03030663573695945,0.536563106925427,0.5589213861096746,-0.3373733404902092,-0.07226614052299137,0.7647265127717907,0.391144889694996,-0.5194080803128603,-0.2465820329168529,0.1351194602416695,86.63003663003663,773.2234432234433,789.7435897435897,571.3553113553114,535.0915750915751,-0.181519,0.044983,0.955017,-5.600128,-10.482483,14.527435,1,1,1,1,1,100.000000
2023-09-08 13:13:43.145,,,,,,,,,,,,,,,,,,,,,,,,,,,,,,,,,,,,,,/muse/elements/blink
2023-09-08 13:13:43.473,,,,,,,,,,,,,,,,,,,,,,,,,,,,,,,,,,,,,,/muse/elements/blink
2023-09-08 13:13:43.545,-0.02929491577895484,0.6479202467649818,0.5777774994454329,0.7246091795482796,0.974114679922506,0.1759163721872513,0.06610585598669909,1.101410885718042,0.6355644398176368,0.4838468789383925,0.3003749885528639,0.536563106925427,0.5589213861096746,-0.1153869990465593,0.4286817944606474,0.7647265127717907,0.391144889694996,-0.3197975082789911,0.3191668768909221,0.1351194602416695,16.92307692307692,780.4761904761905,789.7435897435897,643.8827838827839,579.0109890109891,-0.425354,0.024475,0.903137,3.102875,-0.441132,-1.308441,1,2,1,1,2,100.000000
2023-09-08 13:13:43.670,,,,,,,,,,,,,,,,,,,,,,,,,,,,,,,,,,,,,,/muse/elements/blink
2023-09-08 13:13:44.546,,,,,,,,,,,,,,,,,,,,,,,,,,,,,,,,,,,,,,/muse/elements/blink
2023-09-08 13:13:44.546,-0.02929491577895484,0.4208153043237791,0.348434560774729,0.7246091795482796,0.974114679922506,-0.01359833475304451,0.01630677466792282,1.101410885718042,0.6355644398176368,0.3034066452768099,0.360173945810401,0.536563106925427,0.5589213861096746,0.01703945006855791,0.446942062590254,0.7647265127717907,0.391144889694996,-0.2992524604301343,0.4644087070678733,0.1351194602416695,583.040293040293,792.967032967033,795.3846153846154,784.9084249084249,765.5677655677656,-0.307556,0.076782,0.938965,7.192688,-6.504822,-6.908569,1,4,1,1,2,100.000000
2023-09-08 13:13:44.960,,,,,,,,,,,,,,,,,,,,,,,,,,,,,,,,,,,,,,/muse/elements/blink
2023-09-08 13:13:45.399,,,,,,,,,,,,,,,,,,,,,,,,,,,,,,,,,,,,,,/muse/elements/blink
2023-09-08 13:13:45.545,-0.02929491577895484,0.50826944256313,0.4880795466914207,0.7246091795482796,0.974114679922506,-0.04274068439327473,0.1900029038672673,1.101410885718042,0.6355644398176368,0.3177448054428166,0.3008840126918083,0.536563106925427,0.5589213861096746,-0.006987542508574651,0.3291872045993025,0.7647265127717907,0.391144889694996,-0.330192213784206,0.06790619820259593,0.1351194602416695,214.7619047619048,769.5970695970697,780.0732600732601,670.4761904761905,539.1208791208792,-0.323792,0.067810,0.933167,2.901001,-2.026215,2.564545,1,4,1,1,2,100.000000
2023-09-08 13:13:45.663,,,,,,,,,,,,,,,,,,,,,,,,,,,,,,,,,,,,,,/muse/elements/blink
2023-09-08 13:13:45.773,,,,,,,,,,,,,,,,,,,,,,,,,,,,,,,,,,,,,,/muse/elements/jaw_clench
2023-09-08 13:13:45.992,,,,,,,,,,,,,,,,,,,,,,,,,,,,,,,,,,,,,,/muse/elements/blink
2023-09-08 13:13:45.992,,,,,,,,,,,,,,,,,,,,,,,,,,,,,,,,,,,,,,/muse/elements/jaw_clench
2023-09-08 13:13:46.545,-0.02929491577895484,0.1803383438520025,0.2620354645060451,0.862856636586141,0.974114679922506,-0.06670362700196544,0.1268154695337509,0.9900052247903843,0.6355644398176368,-0.01689641661924347,0.1533997532165365,1.15800761402322,0.5589213861096746,-0.1207508239917257,0.1786697356757631,0.6878530243969038,0.391144889694996,-0.3665744577887554,-0.03704262066022151,0.444734192234134,0,769.1941391941392,782.4908424908425,635.4212454212454,575.7875457875458,-0.285706,0.008362,0.915100,-1.398163,-15.805969,-5.308533,1,4,1,1,1,100.000000
2023-09-08 13:13:47.130,,,,,,,,,,,,,,,,,,,,,,,,,,,,,,,,,,,,,,/muse/elements/blink
2023-09-08 13:13:47.545,-0.02929491577895484,0.01366733246591671,-0.05958607335643241,1.048000023927229,0.974114679922506,-0.1110492707007542,-0.2541809663955577,0.8354954607706581,0.6355644398176368,-0.2223130061732418,0.163751470645373,1.15800761402322,0.5589213861096746,-0.1827150512008909,0.1249725629399037,0.581759225659368,0.391144889694996,-0.3227822881790973,-0.03354613281808328,0.4143440721216444,0,769.5970695970697,782.893772893773,637.032967032967,544.7619047619048,-0.302612,0.143372,0.922302,-1.629944,-5.024414,-9.084320,1,4,1,1,1,100.000000
2023-09-08 13:13:48.203,,,,,,,,,,,,,,,,,,,,,,,,,,,,,,,,,,,,,,/muse/elements/blink
2023-09-08 13:13:48.545,-0.02929491577895484,0.0737935916628964,-0.05075200328769976,0.9983126411662333,0.974114679922506,0.05559381194533727,-0.4067383961629402,0.4084389654138254,0.6355644398176368,-0.0231068535930424,-0.09377710793552051,0.4513489468192098,0.5589213861096746,-0.1187976491746204,-0.07326595997191085,0.4605466697607814,0.391144889694996,-0.4577494877570384,-0.1753436768182044,0.4490861177960631,116.8498168498168,768.3882783882784,781.2820512820513,649.1208791208792,666.8498168498169,-0.315674,0.087158,0.933899,3.192596,-5.495453,0.246735,1,4,1,1,1,100.000000
2023-09-08 13:13:49.160,,,,,,,,,,,,,,,,,,,,,,,,,,,,,,,,,,,,,,/muse/elements/blink
2023-09-08 13:13:49.545,-0.02929491577895484,0.1453431410292221,0.0008894012210581114,0.9908130373308501,0.974114679922506,0.01920436277423952,-0.4398330054493368,0.4239794359740843,0.6355644398176368,-0.003238171577049889,-0.04187167276886477,0.3785838079051876,0.5589213861096746,0.06045908312307174,-0.07362000441980522,0.459804532827491,0.391144889694996,-0.5561186280000323,-0.2172271274867525,0.4346793489651208,0,764.7619047619048,779.2673992673992,593.919413919414,596.7399267399268,-0.248596,0.131104,0.934326,1.233673,-3.588867,5.114136,1,2,1,1,1,100.000000
2023-09-08 13:13:49.768,,,,,,,,,,,,,,,,,,,,,,,,,,,,,,,,,,,,,,/muse/elements/blink
2023-09-08 13:13:50.163,,,,,,,,,,,,,,,,,,,,,,,,,,,,,,,,,,,,,,/muse/elements/jaw_clench
2023-09-08 13:13:50.361,,,,,,,,,,,,,,,,,,,,,,,,,,,,,,,,,,,,,,/muse/elements/blink
2023-09-08 13:13:50.545,-0.02929491577895484,-0.2046646426213562,-0.06064436213212225,0.3672609925117389,0.974114679922506,-0.4789621305499608,-0.81095543189467,0.3670567730725108,0.6355644398176368,-0.1826682868218114,-0.1216006103055619,0.5361536160261831,0.5589213861096746,-0.04975751660474957,-0.2337349735603454,0.533146665468888,0.391144889694996,-0.5201033998091337,-0.3868213375948739,0.2132756659424114,332.014652014652,784.5054945054945,784.9084249084249,660,579.4139194139194,-0.272034,0.028748,0.950684,1.263580,-2.392578,1.697235,1,1,1,1,1,100.000000
2023-09-08 13:13:51.260,,,,,,,,,,,,,,,,,,,,,,,,,,,,,,,,,,,,,,/muse/elements/jaw_clench
2023-09-08 13:13:51.391,,,,,,,,,,,,,,,,,,,,,,,,,,,,,,,,,,,,,,/muse/elements/blink
2023-09-08 13:13:51.500,,,,,,,,,,,,,,,,,,,,,,,,,,,,,,,,,,,,,,/muse/elements/jaw_clench
2023-09-08 13:13:51.545,-0.02929491577895484,-0.1103191827868724,-0.2796412197862922,0.4872672802985085,0.974114679922506,-0.2983960878101269,-0.5040696755288402,0.416856482501839,0.6355644398176368,0.1021264953423504,-0.007884740000522522,0.6814512827468702,0.5589213861096746,-0.007044291618280488,-0.1346929961211266,0.5286337177362211,0.391144889694996,-0.53563793460158,-0.4319249616440012,0.2080878556423554,93.47985347985349,761.941391941392,782.4908424908425,585.0549450549451,456.923076923077,-0.301025,0.071655,0.950684,1.166382,-3.162689,0.590668,1,1,1,1,1,100.000000
2023-09-08 13:13:52.549,0.4057681534247058,0.4044130956375357,0.1033010391784849,0.5632775197723715,0.5519077203674759,0.06800640882744532,-0.1880387215277044,0.4118323277806076,0.8199918004728499,0.2940018430660979,0.1002222182047999,0.6883019510829509,0.6330349663218199,-0.06383990692663498,-0.332002832552007,0.5941223254354526,0.7099427967611853,-0.6077052005651655,-0.4876152415539138,0.1319262852843627,199.0476190476191,769.5970695970697,781.6849816849817,626.959706959707,662.014652014652,-0.288269,0.054626,0.954407,-6.699219,-0.904694,7.828217,1,1,1,1,1,100.000000
2023-09-08 13:13:53.545,0.4083520776574316,0.6946230214044555,0.3382026483632546,0.8316091630844132,0.2830380466391159,0.3871754445489071,-0.116638367845027,0.4706350215295238,0.6893705765977103,0.2008178779732442,0.1804883181060307,0.6541696366233334,0.6226308465001703,-0.1664507745154317,-0.2560553072477948,0.7551786298992897,0.7252635314895838,-0.5433023173649602,-0.4674936289311029,0.2388296691635031,350.952380952381,778.4615384615385,789.3406593406594,690.2197802197802,547.5824175824176,-0.310608,0.119080,0.926636,0.687866,-3.491669,-0.545807,1,1,1,1,1,100.000000
2023-09-08 13:13:53.928,,,,,,,,,,,,,,,,,,,,,,,,,,,,,,,,,,,,,,/muse/elements/blink
2023-09-08 13:13:54.215,,,,,,,,,,,,,,,,,,,,,,,,,,,,,,,,,,,,,,/muse/elements/blink
2023-09-08 13:13:54.544,,,,,,,,,,,,,,,,,,,,,,,,,,,,,,,,,,,,,,/muse/elements/blink
2023-09-08 13:13:54.544,,,,,,,,,,,,,,,,,,,,,,,,,,,,,,,,,,,,,,/muse/elements/jaw_clench
2023-09-08 13:13:54.554,0.4083520776574316,0.3254518973676561,-0.2509543623816101,0.7868076573086583,0.2830380466391159,-0.01286620470388395,-0.5069183127716306,0.3067405759468522,0.6893705765977103,0.08741331051987501,0.1744513006770547,0.611604986139899,0.6226308465001703,-0.1879374161405273,-0.07107090965606214,0.6991065852612841,0.7252635314895838,-0.4771780675486292,-0.417110536747252,0.3510834716339457,64.06593406593407,778.0586080586081,784.1025641025641,601.1721611721612,447.6556776556777,-0.343933,0.080017,0.930237,1.831818,-4.029999,1.764526,1,1,1,1,1,100.000000
2023-09-08 13:13:54.721,,,,,,,,,,,,,,,,,,,,,,,,,,,,,,,,,,,,,,/muse/elements/jaw_clench
2023-09-08 13:13:54.810,,,,,,,,,,,,,,,,,,,,,,,,,,,,,,,,,,,,,,/muse/elements/blink
2023-09-08 13:13:55.324,,,,,,,,,,,,,,,,,,,,,,,,,,,,,,,,,,,,,,/muse/elements/jaw_clench
2023-09-08 13:13:55.502,,,,,,,,,,,,,,,,,,,,,,,,,,,,,,,,,,,,,,/muse/elements/jaw_clench
2023-09-08 13:13:55.545,0.4083520776574316,-0.06082397796505173,-0.2315175806774553,0.3496232469453868,0.2830380466391159,-0.1524543657764657,-0.5136236871791039,-0.1322833827233788,0.6893705765977103,0.1961760831161894,-0.09005110815726546,0.3035059966987814,0.6226308465001703,-0.08039070745653469,-0.1366955890768249,0.7175549918469044,0.7252635314895838,-0.2542797912532516,-0.4140239708830738,0.3575247123681192,142.6373626373626,771.2087912087912,783.6996336996338,632.1978021978022,591.5018315018315,-0.334900,0.085632,0.915588,-0.471039,-2.362671,-0.314026,1,1,1,1,1,100.000000
2023-09-08 13:13:55.745,,,,,,,,,,,,,,,,,,,,,,,,,,,,,,,,,,,,,,/muse/elements/jaw_clench
2023-09-08 13:13:56.029,,,,,,,,,,,,,,,,,,,,,,,,,,,,,,,,,,,,,,/muse/elements/blink
2023-09-08 13:13:56.269,,,,,,,,,,,,,,,,,,,,,,,,,,,,,,,,,,,,,,/muse/elements/jaw_clench
2023-09-08 13:13:56.466,,,,,,,,,,,,,,,,,,,,,,,,,,,,,,,,,,,,,,/muse/elements/blink
2023-09-08 13:13:56.545,0.4083520776574316,-0.06078858428421708,0.1146307234529931,0.6297786147190695,0.2830380466391159,0.1344513319338918,-0.2184489109415346,0.7656060256194066,0.6893705765977103,0.2682368674662605,0.1214651849212058,0.7547431520719504,0.6226308465001703,0.02815014565925219,-0.08390164967948156,0.4189915351182399,0.7252635314895838,-0.08476443244708386,-0.3569082128132576,0.2163938830245385,461.7582417582418,778.8644688644689,786.9230769230769,707.948717948718,630.5860805860806,-0.336182,0.122009,0.933533,0.889740,-18.856506,-17.809753,1,1,1,1,1,100.000000
2023-09-08 13:13:57.058,,,,,,,,,,,,,,,,,,,,,,,,,,,,,,,,,,,,,,/muse/elements/jaw_clench
2023-09-08 13:13:57.256,,,,,,,,,,,,,,,,,,,,,,,,,,,,,,,,,,,,,,/muse/elements/blink
2023-09-08 13:13:57.549,0.4083520776574316,0.4835706874223216,0.3038808009695181,0.6721422571676673,0.2830380466391159,0.1530869305083934,0.00852558827143155,0.9852110618218322,0.6893705765977103,0.06115572788555514,0.1309699395519829,0.7321748519371701,0.6226308465001703,0.05748137156984347,-0.01450259915726032,0.4289785973000325,0.7252635314895838,-0.07659542955249837,-0.4367936737980911,0.1557499702429855,266.7399267399268,766.3736263736264,786.9230769230769,615.6776556776557,500.0366300366301,-0.124512,0.090088,0.956177,3.805695,-31.305389,-1.218719,1,1,1,1,1,100.000000
2023-09-08 13:13:57.871,,,,,,,,,,,,,,,,,,,,,,,,,,,,,,,,,,,,,,/muse/elements/blink
2023-09-08 13:13:58.545,0.4083520776574316,0.2458486068900328,0.1786664057625999,0.3459070427306892,0.2830380466391159,0.04403812184225576,0.01496930664502914,0.6158923093498664,0.6893705765977103,0.2076127236612148,-0.08185378537946604,0.6216572727675105,0.6226308465001703,-0.003792532682775743,-0.06200213472050661,0.653948449020192,0.7252635314895838,-0.05333103426517382,-0.4671695119629471,0.2196738467559765,459.3406593406593,776.0439560439561,791.7582417582418,662.014652014652,627.7655677655678,-0.010437,0.115967,0.975464,1.383209,-0.373840,-1.861725,1,1,1,1,1,100.000000
2023-09-08 13:13:58.571,,,,,,,,,,,,,,,,,,,,,,,,,,,,,,,,,,,,,,/muse/elements/blink
2023-09-08 13:13:58.792,,,,,,,,,,,,,,,,,,,,,,,,,,,,,,,,,,,,,,/muse/elements/blink
2023-09-08 13:13:59.490,,,,,,,,,,,,,,,,,,,,,,,,,,,,,,,,,,,,,,/muse/elements/blink
2023-09-08 13:13:59.545,0.4157481249666014,0.1705205215015678,0.2153318599253808,0.2942943498676607,0.4763589656684242,-0.03680625556355261,-0.2394090371270041,0.2552768331666316,0.4851460594643655,0.1736113340520086,-0.1877453082983553,0.6495159690656126,0.5550790059582166,-0.06955199655832854,-0.2700488118691875,0.4861011818422617,0.2400442133724713,-0.4802327860292299,-0.5667219983210581,0.1862032411616327,640.6593406593407,781.2820512820513,783.6996336996338,716.8131868131868,516.1538461538462,-0.002808,0.092590,0.980469,0.635529,-0.306549,0.246735,1,1,1,1,1,100.000000
2023-09-08 13:13:59.927,,,,,,,,,,,,,,,,,,,,,,,,,,,,,,,,,,,,,,/muse/elements/blink
2023-09-08 13:14:00.543,,,,,,,,,,,,,,,,,,,,,,,,,,,,,,,,,,,,,,/muse/elements/blink
2023-09-08 13:14:00.557,0.4394065514550262,0.01274480648004024,-0.2893468400509878,0.6910850551747632,0.498645035872466,-0.3739600098087492,-0.405583748985228,0.4370158611615342,0.691521136703071,0.1631733219436207,-0.2265797722084147,1.174984386398592,0.7120929405719134,-0.2654823234423383,-0.09202917707156837,0.5590237609387104,0.7260338982855927,-0.426182389946516,-0.4731997432066302,0.2750785792685752,280.4395604395605,771.2087912087912,782.893772893773,628.974358974359,552.014652014652,-0.233521,0.058289,0.952820,1.031799,2.669220,3.775787,1,1,1,1,1,100.000000
2023-09-08 13:14:01.252,,,,,,,,,,,,,,,,,,,,,,,,,,,,,,,,,,,,,,/muse/elements/blink
2023-09-08 13:14:01.430,,,,,,,,,,,,,,,,,,,,,,,,,,,,,,,,,,,,,,/muse/elements/jaw_clench
2023-09-08 13:14:01.519,,,,,,,,,,,,,,,,,,,,,,,,,,,,,,,,,,,,,,/muse/elements/blink
2023-09-08 13:14:01.544,0.4124028950407251,0.1162879367278522,-0.142921533952741,1.116016556357191,0.5440776988593771,-0.24671361612866,-0.1129516130239174,0.7663440727555979,0.6671666352184736,0.2385783766364107,-0.2853218791789939,1.235322258336,0.7219087805092409,-0.1406307436651462,-0.07985940707990001,0.662326509342036,0.7868616553741653,-0.3533369339332176,-0.4718073551254904,0.1795734821634187,257.8754578754579,775.2380952380953,772.4175824175825,660.4029304029305,576.1904761904763,-0.386475,0.065002,0.945007,-2.661743,-20.501404,13.525543,1,1,1,1,1,100.000000
2023-09-08 13:14:01.760,,,,,,,,,,,,,,,,,,,,,,,,,,,,,,,,,,,,,,/muse/elements/blink
2023-09-08 13:14:02.133,,,,,,,,,,,,,,,,,,,,,,,,,,,,,,,,,,,,,,/muse/elements/blink
2023-09-08 13:14:02.354,,,,,,,,,,,,,,,,,,,,,,,,,,,,,,,,,,,,,,/muse/elements/blink
2023-09-08 13:14:02.545,0.4124028950407251,0.4207684432866188,0.4600714326645992,1.118090708094869,0.5440776988593771,0.2244310840649143,0.3737195658884195,1.027301425321157,0.6671666352184736,0.6493668630784507,-0.06733702886158265,1.225599677839758,0.7219087805092409,0.1578998134863844,0.223940621738646,0.7002485540301522,0.7868616553741653,-0.07901539082757728,-0.1201206053319803,0.3544979704491075,643.0769230769231,794.1758241758242,780.0732600732601,724.4688644688645,674.5054945054945,-0.338440,0.058594,0.885681,4.358978,-31.492310,-11.723633,1,1,1,1,1,100.000000
2023-09-08 13:14:02.643,,,,,,,,,,,,,,,,,,,,,,,,,,,,,,,,,,,,,,/muse/elements/blink
2023-09-08 13:14:03.552,0.4124028950407251,0.5871388302876183,0.2282347158012296,1.318515677765832,0.5440776988593771,0.1148758342813516,0.05085632515793851,1.249279544428101,0.6671666352184736,0.2939133675109145,0.1019995733492358,1.225599677839758,0.7219087805092409,0.1173174112776792,-0.04781292228991899,0.7618283192483561,0.7868616553741653,-0.2105805626003384,-0.3478004481597023,0.4801356250571708,87.43589743589745,774.0293040293041,776.8498168498169,662.4175824175825,572.5641025641025,-0.298523,0.066345,0.928345,11.050720,-5.218811,1.966400,1,4,1,1,1,100.000000
2023-09-08 13:14:03.954,,,,,,,,,,,,,,,,,,,,,,,,,,,,,,,,,,,,,,/muse/elements/blink
2023-09-08 13:14:04.544,0.4124028950407251,0.2611734969243485,-0.02142169414887005,1.318515677765832,0.5440776988593771,-0.01872205765371627,-0.01254775678875675,1.249279544428101,0.6671666352184736,0.3048540543177746,0.1135515098285004,1.225599677839758,0.7219087805092409,0.2057024991972248,-0.07410213505570651,0.7618283192483561,0.7868616553741653,-0.02553763231128878,-0.6207107260122063,0.4801356250571708,318.3150183150183,799.0109890109891,769.1941391941392,599.9633699633699,655.9706959706959,-0.364685,0.058838,0.921326,12.202148,-9.159088,-29.346466,1,2,1,1,2,100.000000
2023-09-08 13:14:04.806,,,,,,,,,,,,,,,,,,,,,,,,,,,,,,,,,,,,,,/muse/elements/blink
2023-09-08 13:14:05.091,,,,,,,,,,,,,,,,,,,,,,,,,,,,,,,,,,,,,,/muse/elements/blink
2023-09-08 13:14:05.545,0.4124028950407251,0.6616367124837131,0.5289374069467392,1.318515677765832,0.5440776988593771,0.5027395197211123,0.2573281920484672,1.249279544428101,0.6671666352184736,0.4138935566085504,0.2548208757036485,1.225599677839758,0.7219087805092409,0.01909505017078307,-0.1337197406397139,0.7618283192483561,0.7868616553741653,-0.2493243111759083,-0.4614207592225603,0.4801356250571708,722.8571428571429,780.8791208791209,780.0732600732601,759.1208791208792,704.3223443223443,-0.337708,0.027405,0.934937,-0.964508,1.764526,17.368622,1,2,1,1,2,100.000000
2023-09-08 13:14:05.792,,,,,,,,,,,,,,,,,,,,,,,,,,,,,,,,,,,,,,/muse/elements/blink
2023-09-08 13:14:06.385,,,,,,,,,,,,,,,,,,,,,,,,,,,,,,,,,,,,,,/muse/elements/blink
2023-09-08 13:14:06.546,0.4124028950407251,0.7870017214530625,0.6074756654659241,1.066444148046068,0.5440776988593771,0.4800673157921249,0.1258668630595986,0.3279387221000578,0.6671666352184736,0.5210201843894841,0.2124461106695282,0.5510197573534091,0.7219087805092409,-0.161668809611573,-0.1716695048648734,0.5687194674483509,0.7868616553741653,-0.3556356510307849,-0.3864233354612709,0.2526342406358477,183.3333333333333,767.5824175824176,788.9377289377289,680.952380952381,564.9084249084249,-0.243896,0.133301,0.944824,7.574005,-5.517883,-3.401947,1,1,1,1,1,100.000000
2023-09-08 13:14:06.908,,,,,,,,,,,,,,,,,,,,,,,,,,,,,,,,,,,,,,/muse/elements/blink
2023-09-08 13:14:07.523,,,,,,,,,,,,,,,,,,,,,,,,,,,,,,,,,,,,,,/muse/elements/blink
2023-09-08 13:14:07.544,0.4124028950407251,-0.01845921244745589,-0.05274116133251105,0.9905970871867739,0.5440776988593771,-0.2751854247164233,-0.450083297781207,0.4577252123068634,0.6671666352184736,0.1481215726778367,0.01246897539883345,0.6948741759217365,0.7219087805092409,-0.2046155061353321,-0.130076966238962,0.5665829070502163,0.7868616553741653,-0.2212711973803512,-0.4366952172669952,0.4195816619397369,395.2747252747253,771.2087912087912,772.4175824175825,676.9230769230769,687.3992673992674,-0.213379,0.094055,0.991882,2.190704,-6.938477,-2.729034,1,1,1,1,1,100.000000
2023-09-08 13:14:07.939,,,,,,,,,,,,,,,,,,,,,,,,,,,,,,,,,,,,,,/muse/elements/jaw_clench
2023-09-08 13:14:08.311,,,,,,,,,,,,,,,,,,,,,,,,,,,,,,,,,,,,,,/muse/elements/jaw_clench
2023-09-08 13:14:08.544,0.4124028950407251,0.5061699580815845,0.2859401782648134,0.9322661779101353,0.5440776988593771,0.3729161315055258,-0.08622334729888526,0.9491017591563851,0.6671666352184736,0.3021640503019568,0.325258141462434,0.9536845879667047,0.7219087805092409,0.005480654478448619,-0.005735719509844091,0.6492820647722134,0.7868616553741653,-0.3432502827942459,-0.1766663884840237,0.4511314679819975,640.2564102564103,784.5054945054945,779.2673992673992,748.2417582417582,679.7435897435897,-0.245300,0.115845,0.931396,4.695435,-4.807587,0.366364,1,1,1,1,1,100.000000
2023-09-08 13:14:08.548,,,,,,,,,,,,,,,,,,,,,,,,,,,,,,,,,,,,,,/muse/elements/blink
2023-09-08 13:14:08.548,,,,,,,,,,,,,,,,,,,,,,,,,,,,,,,,,,,,,,/muse/elements/jaw_clench
2023-09-08 13:14:09.247,,,,,,,,,,,,,,,,,,,,,,,,,,,,,,,,,,,,,,/muse/elements/blink
2023-09-08 13:14:09.533,,,,,,,,,,,,,,,,,,,,,,,,,,,,,,,,,,,,,,/muse/elements/blink
2023-09-08 13:14:09.547,0.4124028950407251,0.6325525109200709,0.1625235023191224,0.7045616847990562,0.5440776988593771,0.2803544165718987,0.1030965574038018,0.7246689047326946,0.6671666352184736,0.2024313805820516,0.3209004852957312,0.9637638782074215,0.7219087805092409,-0.05707670165221148,-0.0812170693782545,0.6875194528118841,0.7868616553741653,-0.4216531197491296,-0.2690276385571823,0.4758466691928199,120.0732600732601,768.7912087912088,786.1172161172161,610.4395604395604,519.3772893772893,-0.270630,0.116333,0.950867,2.415009,-7.708588,-2.968292,1,1,1,1,1,100.000000
2023-09-08 13:14:09.954,,,,,,,,,,,,,,,,,,,,,,,,,,,,,,,,,,,,,,/muse/elements/blink
2023-09-08 13:14:10.370,,,,,,,,,,,,,,,,,,,,,,,,,,,,,,,,,,,,,,/muse/elements/blink
2023-09-08 13:14:10.544,1.049529178135752,-0.09181772420620199,-0.3830081347267462,0.8184735253164588,0.9133330669864103,-0.4004559010493545,-0.4725183770491038,0.3621907972384197,1.248121429339555,-0.1783062145357201,0.09160592678816656,0.9809468062039532,0.961336995889433,-0.2085810548094539,-0.2469738964887943,0.5369365591000583,0.9533260349826207,-0.4411972633612785,-0.5527959383226627,0.3921016219267274,298.1684981684982,769.5970695970697,780.0732600732601,661.6117216117216,710.7692307692308,-0.249512,0.076233,0.953369,3.416901,0.157013,-0.029907,1,1,1,1,1,100.000000
2023-09-08 13:14:10.547,,,,,,,,,,,,,,,,,,,,,,,,,,,,,,,,,,,,,,/muse/elements/jaw_clench
2023-09-08 13:14:11.544,1.109642283043903,-0.1066968960722486,-0.03664122334057653,1.07229090865722,0.8743603842111695,-0.1768481880201716,-0.4716500126367065,0.7109547616355268,1.230373549939089,-0.08287176260459668,0.183026973711635,0.9671096267463473,0.9298050200146859,-0.1194214645109632,-0.07792325566513103,0.3646760472022414,0.8882952109384659,-0.4219755602678531,-0.496412438361764,0.2890203312887332,521.3919413919414,781.2820512820513,780.8791208791209,714.3956043956044,597.5457875457876,-0.261230,0.080078,0.945618,-1.555176,-2.377625,-2.841187,1,1,1,1,1,100.000000
2023-09-08 13:14:12.476,,,,,,,,,,,,,,,,,,,,,,,,,,,,,,,,,,,,,,/muse/elements/blink
2023-09-08 13:14:12.554,1.109642283043903,-0.5197598889035843,0.02757813932955385,1.07229090865722,0.8743603842111695,0.2070123565729407,-0.3281613055883382,0.7109547616355268,1.230373549939089,0.1660194529014783,-0.1783714155520934,0.9671096267463473,0.9298050200146859,-0.137598288804194,-0.1969737255332163,0.3646760472022414,0.8882952109384659,-0.4403451045184558,-0.5046052084120148,0.2890203312887332,63.26007326007326,770,781.6849816849817,636.6300366300367,557.6556776556777,-0.288696,0.088074,0.934021,3.028107,-3.880463,-2.190704,1,1,1,1,1,100.000000
2023-09-08 13:14:12.805,,,,,,,,,,,,,,,,,,,,,,,,,,,,,,,,,,,,,,/muse/elements/blink
2023-09-08 13:14:13.001,,,,,,,,,,,,,,,,,,,,,,,,,,,,,,,,,,,,,,/muse/elements/blink
2023-09-08 13:14:13.001,,,,,,,,,,,,,,,,,,,,,,,,,,,,,,,,,,,,,,/muse/elements/jaw_clench
2023-09-08 13:14:13.544,0.4557834237606797,-0.3276067509985202,-0.3710453236679723,0.612215957438653,0.4322234918595843,-0.01984094860441175,-0.3621467166973659,0.3182796964700932,0.9118064048496036,0.1983983407765634,-0.1031863511057825,0.6680322837699246,0.9196305373661956,-0.1409980428274465,-0.2359777725925732,0.4342443465806986,0.9435306175344615,-0.3428245510919801,-0.5001565401404526,0.1941568805628787,176.8864468864469,771.6117216117216,780.0732600732601,630.5860805860806,631.3919413919414,-0.311829,0.124573,0.941650,3.454285,-2.938385,2.930908,1,1,1,1,1,100.000000
2023-09-08 13:14:13.612,,,,,,,,,,,,,,,,,,,,,,,,,,,,,,,,,,,,,,/muse/elements/blink
2023-09-08 13:14:13.940,,,,,,,,,,,,,,,,,,,,,,,,,,,,,,,,,,,,,,/muse/elements/blink
2023-09-08 13:14:14.544,0.2843337976871121,0.250070919504677,-0.2592607907766191,0.6019564656661701,0.4019071975950267,0.01862812318527693,-0.3446519462491111,0.4650018896512811,0.669488648278337,0.0149070718257842,-0.09199405762580128,0.7610303563003912,1.057176328360604,-0.189693201902711,-0.3082084722042761,0.6152881868416323,0.9257939354561353,-0.391114948175294,-0.5926700759000451,0.1209290366172951,15.31135531135531,767.985347985348,786.5201465201466,613.6630036630037,581.4285714285714,-0.321228,0.079468,0.925598,4.112244,-2.467346,-5.630035,1,1,1,1,1,100.000000
2023-09-08 13:14:14.732,,,,,,,,,,,,,,,,,,,,,,,,,,,,,,,,,,,,,,/muse/elements/blink
2023-09-08 13:14:15.016,,,,,,,,,,,,,,,,,,,,,,,,,,,,,,,,,,,,,,/muse/elements/blink
2023-09-08 13:14:15.542,,,,,,,,,,,,,,,,,,,,,,,,,,,,,,,,,,,,,,/muse/elements/blink
2023-09-08 13:14:15.554,0.2843337976871121,0.4672423176731337,0.2594651994960008,0.6686881424797569,0.4019071975950267,0.2156786556970431,-0.1021341920959602,0.5690594385660905,0.669488648278337,0.3108171905246686,-0.1745582543315143,0.7063658380031029,1.057176328360604,-0.1286687255488529,-0.2192662194623998,0.6227249340182559,0.9257939354561353,-0.4389054593415965,-0.6048648292517187,0.2200322439499668,0,772.014652014652,784.9084249084249,662.014652014652,637.032967032967,-0.319397,0.132751,0.944763,1.824341,-0.568237,1.973877,1,1,1,1,1,100.000000
2023-09-08 13:14:15.856,,,,,,,,,,,,,,,,,,,,,,,,,,,,,,,,,,,,,,/muse/elements/blink
2023-09-08 13:14:16.142,,,,,,,,,,,,,,,,,,,,,,,,,,,,,,,,,,,,,,/muse/elements/blink
2023-09-08 13:14:16.381,,,,,,,,,,,,,,,,,,,,,,,,,,,,,,,,,,,,,,/muse/elements/blink
2023-09-08 13:14:16.546,0.2581295811686274,-0.1353666214745735,0.05937319114781453,0.3393794104709304,0.4891989300576489,-0.03779509002034345,-0.2989641305517037,0.2781519692580979,0.9487813243634725,0.323336894485552,-0.04871550800572217,0.6033324065877551,1.188353545673972,-0.1565347738388704,-0.2039052298960959,0.576712897825417,1.076660798006498,-0.4660171005333084,-0.6090994854029509,0.2275705474298422,81.7948717948718,763.956043956044,777.2527472527473,670.4761904761905,562.893772893773,-0.308533,0.049316,0.909424,-8.553467,-1.704712,-16.680756,1,1,1,1,1,100.000000
2023-09-08 13:14:16.668,,,,,,,,,,,,,,,,,,,,,,,,,,,,,,,,,,,,,,/muse/elements/blink
2023-09-08 13:14:17.171,,,,,,,,,,,,,,,,,,,,,,,,,,,,,,,,,,,,,,/muse/elements/blink
2023-09-08 13:14:17.543,0.3461088581915518,0.3195794771512543,0.03890428043020308,0.3156755476944559,0.587000889861285,0.1811614383823187,-0.1177069863941038,0.4425236873593304,0.9379170614179791,0.3227121619967686,0.08424096402873088,0.558316180200924,1.234799976214049,-0.06114004374005876,-0.2515505755442851,0.3553010389521721,1.025632598749326,-0.3546993776934738,-0.5588567607995779,0.02744993388364481,265.5311355311355,774.0293040293041,776.8498168498169,642.6739926739926,563.6996336996338,-0.315063,0.041931,0.937134,3.902893,-0.672913,2.407532,1,1,1,1,1,100.000000
2023-09-08 13:14:17.784,,,,,,,,,,,,,,,,,,,,,,,,,,,,,,,,,,,,,,/muse/elements/blink
2023-09-08 13:14:17.960,,,,,,,,,,,,,,,,,,,,,,,,,,,,,,,,,,,,,,/muse/elements/blink
2023-09-08 13:14:18.395,,,,,,,,,,,,,,,,,,,,,,,,,,,,,,,,,,,,,,/muse/elements/blink
2023-09-08 13:14:18.543,0.5814788256924797,0.1723177989791123,-0.3028127345744949,0.2356262373919367,0.8836673374175155,-0.1232254803197429,-0.1372974586266449,0.765913525681698,0.8646675357758479,0.2105613915052936,-0.02592871887029722,0.5436160111766579,1.153725968457198,-0.04200287014600119,-0.1373518545484185,0.5150048065617516,1.021784166289302,-0.34662220664969,-0.6458203522900186,0.2499378849901188,14.50549450549451,770.8058608058608,782.4908424908425,630.1831501831502,630.1831501831502,-0.329468,0.052917,0.923889,3.648682,-3.342133,-0.829926,1,1,1,1,1,100.000000
2023-09-08 13:14:18.899,,,,,,,,,,,,,,,,,,,,,,,,,,,,,,,,,,,,,,/muse/elements/blink
2023-09-08 13:14:19.099,,,,,,,,,,,,,,,,,,,,,,,,,,,,,,,,,,,,,,/muse/elements/blink
2023-09-08 13:14:19.543,0.5518863673257569,-0.2425795221235491,0.0463876398107595,0.3856227858144795,0.757112614485548,-0.2955744064186728,-0.04577128445318138,0.6555279191074435,0.8675140330539631,-0.09498440497098684,0.2600390089689024,0.6369226660282004,1.113695693507897,-0.02561447869204798,-0.03110444785184384,0.5338568348721056,1.030152221896352,-0.1450524219779557,-0.5267722568309587,0.1766276383154581,0,772.014652014652,777.2527472527473,611.6483516483516,537.9120879120879,-0.348022,0.125732,0.918701,-3.484192,-8.680573,1.592560,1,1,1,1,1,100.000000
2023-09-08 13:14:19.709,,,,,,,,,,,,,,,,,,,,,,,,,,,,,,,,,,,,,,/muse/elements/blink
2023-09-08 13:14:20.036,,,,,,,,,,,,,,,,,,,,,,,,,,,,,,,,,,,,,,/muse/elements/blink
2023-09-08 13:14:20.213,,,,,,,,,,,,,,,,,,,,,,,,,,,,,,,,,,,,,,/muse/elements/blink
2023-09-08 13:14:20.548,0.353573304985211,-0.1331827926647357,0.07181809669858895,0.5749906105592187,0.5150005508402357,-0.3623264076946665,0.02471203758536637,0.7240777663237904,0.47779127478683,-0.04098840423313029,0.3482060850480518,0.6087831772356523,1.000938111614727,-0.04174471768596492,-0.1881939339176472,0.5311710584239594,0.9350275068677405,-0.3032369416237012,-0.5088006510385917,0.03383934380019005,122.0879120879121,774.0293040293041,788.1318681318681,650.7326007326008,569.3406593406594,-0.307251,0.060852,0.937317,2.616882,-1.958923,-1.540222,1,1,1,1,1,100.000000
2023-09-08 13:14:20.822,,,,,,,,,,,,,,,,,,,,,,,,,,,,,,,,,,,,,,/muse/elements/jaw_clench
2023-09-08 13:14:20.911,,,,,,,,,,,,,,,,,,,,,,,,,,,,,,,,,,,,,,/muse/elements/blink
2023-09-08 13:14:21.021,,,,,,,,,,,,,,,,,,,,,,,,,,,,,,,,,,,,,,/muse/elements/jaw_clench
2023-09-08 13:14:21.441,,,,,,,,,,,,,,,,,,,,,,,,,,,,,,,,,,,,,,/muse/elements/blink
2023-09-08 13:14:21.543,0.353573304985211,0.04893074784084384,-0.2014119088067913,0.3455355628100985,0.5150005508402357,-0.2098427803602672,-0.04877709643352792,0.7647747637639698,0.47779127478683,0.0440975027905164,0.1458734931312703,0.6896461353022852,1.000938111614727,-0.1469791469109956,-0.2456100992049612,0.5925937292668718,0.9350275068677405,-0.5368722463772874,-0.501288204208385,0.5070595226489353,0,757.5091575091575,781.2820512820513,610.4395604395604,680.1465201465202,-0.319275,0.091858,0.935486,2.684174,-2.153320,1.547699,1,1,1,1,1,100.000000
2023-09-08 13:14:22.100,,,,,,,,,,,,,,,,,,,,,,,,,,,,,,,,,,,,,,/muse/elements/blink
2023-09-08 13:14:22.544,0.199154536541309,0.03096636248067062,-0.1738221027552319,0.1190205216056406,0.3261717086723633,-0.196086037096657,-0.002999296379620806,0.6243585803125096,0.8035592241629704,0.05836298371145376,0.09520019287944827,0.7186848422005326,0.9078036245536838,-0.004304460982436116,-0.3000157741466906,0.5719210072314128,0.8544350940109595,-0.4031889793829848,-0.5119297111610576,0.4281023388762968,0.8058608058608059,763.1501831501831,780.4761904761905,606.8131868131868,610.0366300366301,-0.309204,0.073608,0.932800,3.977661,-3.207550,0.306549,1,1,1,1,1,100.000000
2023-09-08 13:14:23.201,,,,,,,,,,,,,,,,,,,,,,,,,,,,,,,,,,,,,,/muse/elements/blink
2023-09-08 13:14:23.544,0.199154536541309,-0.2319818765785533,-0.3481082604298879,0.2945776396142182,0.3261717086723633,-0.3015614242281972,-0.4495885568305737,0.596617467817927,0.8035592241629704,0.02459287728174214,0.09107385842973277,0.7464373640776611,0.9078036245536838,0.01100246117437525,-0.1747745283828322,0.569954533064823,0.8544350940109595,-0.1771356252234337,-0.583793239671297,0.3523795412635465,73.73626373626374,763.956043956044,788.9377289377289,619.7069597069598,455.7142857142857,-0.306519,0.064209,0.930359,1.966400,-4.329071,0.949554,1,1,1,1,1,100.000000
2023-09-08 13:14:24.543,0.9312715088064785,0.4240023325741547,0.252140285521449,0.2381850679052157,0.9064216710158651,0.1087555535092462,-0.5970588767433829,0.3999457324958895,0.9345706199944506,0.3381675732052919,0.02026193236111756,0.9280200739802715,0.9938018219303544,-0.0705329214902098,-0.1878338072546575,0.4740443582929018,1.074087461138781,-0.2424500933665057,-0.5081443166559613,0.1544194832032554,48.35164835164835,770,782.0879120879121,606.007326007326,601.1721611721612,-0.274475,0.048645,0.939087,2.527161,-6.691742,-1.009369,1,1,1,1,1,100.000000
2023-09-08 13:14:25.098,,,,,,,,,,,,,,,,,,,,,,,,,,,,,,,,,,,,,,/muse/elements/blink
2023-09-08 13:14:25.547,0.731596550261479,0.147770070593743,-0.06775675175600206,0.233362228976733,0.6903257039480495,-0.0476796576711947,-0.4486409068578842,0.2105476266634093,0.815124759138748,0.05850377921142878,-0.07116776919875234,0.5189435118548199,1.138390992562752,-0.07314952096247089,0.04024237812770171,0.6063990277739598,1.176745178454318,-0.3959130386478446,-0.4597304840307208,0.2258267867251669,20.54945054945055,757.1062271062272,789.7435897435897,619.3040293040293,552.014652014652,-0.306274,0.072998,0.925049,-2.198181,-3.259888,10.317993,1,1,1,1,1,100.000000
2023-09-08 13:14:26.132,,,,,,,,,,,,,,,,,,,,,,,,,,,,,,,,,,,,,,/muse/elements/blink
2023-09-08 13:14:26.545,0.3004714982827151,0.34549551980919,0.454996593917847,0.5839086503783218,0.6420762161449379,-0.06177675350845793,0.0478096218598224,0.4980888349569413,0.661593804901796,0.2402344960349863,0.1918006819354405,0.7151394179497014,1.1924781036983,-0.03816280081067196,-0.02093978261826299,0.5866103719297895,1.151065432493497,-0.4408137293352786,-0.2850247795242333,0.2934436464628242,83.40659340659342,769.1941391941392,782.4908424908425,611.2454212454213,425.0915750915751,-0.319763,0.083984,0.923462,0.269165,-3.095398,-2.093506,1,1,1,1,1,100.000000
2023-09-08 13:14:27.546,-0.2379246108109352,0.2087555665567831,0.3361883858933539,0.4193278794836685,0.6210841923630382,-0.0856062091123334,-0.08343919736958054,0.4013701998443228,0.9673038894090227,0.2222584455684615,0.1988028663246202,0.7696393672346283,1.192299424504502,-0.04635503760239693,-0.2288218157001493,0.4840420480316723,1.1396826530213,-0.6190709463560414,-0.4106178743021753,0.2046864313943327,14.90842490842491,765.1648351648352,780.0732600732601,598.7545787545788,510.9157509157509,-0.357544,0.101868,0.942444,2.452393,-3.050537,-0.134583,1,1,1,1,1,100.000000
2023-09-08 13:14:28.231,,,,,,,,,,,,,,,,,,,,,,,,,,,,,,,,,,,,,,/muse/elements/blink
2023-09-08 13:14:28.429,,,,,,,,,,,,,,,,,,,,,,,,,,,,,,,,,,,,,,/muse/elements/blink
2023-09-08 13:14:28.547,-0.2359119000553242,-0.2408475769289212,-0.04833845939600423,0.2695036684925038,0.5329933957798439,-0.2808979139420325,-0.4187689146348935,0.2686280345491345,0.9006974881570611,0.1105639451050882,-0.004192473894799084,0.6059011191548155,1.139091258050434,-0.0008970900108171213,-0.2483349436160432,0.3829962460886492,1.090030165460645,-0.5839092054466561,-0.6418979041042689,0.07382903507559385,0.4029304029304029,769.1941391941392,778.8644688644689,611.6483516483516,540.3296703296703,-0.326538,0.092651,0.926636,3.760834,-6.071167,-1.166382,1,1,1,1,1,100.000000
2023-09-08 13:14:28.846,,,,,,,,,,,,,,,,,,,,,,,,,,,,,,,,,,,,,,/muse/elements/blink
2023-09-08 13:14:29.175,,,,,,,,,,,,,,,,,,,,,,,,,,,,,,,,,,,,,,/muse/elements/jaw_clench
2023-09-08 13:14:29.352,,,,,,,,,,,,,,,,,,,,,,,,,,,,,,,,,,,,,,/muse/elements/blink
2023-09-08 13:14:29.544,-0.2359119000553242,-0.2704139312953155,-0.2099666088295337,0.3393991868225502,0.5329933957798439,-0.2110075311957214,-0.1889392396140759,-0.07808321643854503,0.9006974881570611,0.04782309557245881,0.09247416949263212,0.5407399141764236,1.139091258050434,-0.06212892491015058,-0.1727294608926444,0.3554728972875272,1.090030165460645,-0.2474093856084805,-0.4083668030798139,0.02239988742804497,164.7985347985348,782.4908424908425,779.6703296703297,629.3772893772893,539.1208791208792,-0.320435,0.076721,0.923767,3.244934,-1.196289,0.979462,1,1,1,1,1,100.000000
2023-09-08 13:14:29.551,,,,,,,,,,,,,,,,,,,,,,,,,,,,,,,,,,,,,,/muse/elements/blink
2023-09-08 13:14:29.974,,,,,,,,,,,,,,,,,,,,,,,,,,,,,,,,,,,,,,/muse/elements/blink
2023-09-08 13:14:30.481,,,,,,,,,,,,,,,,,,,,,,,,,,,,,,,,,,,,,,/muse/elements/blink
2023-09-08 13:14:30.544,-0.2359119000553242,0.01365490612971296,0.1064513759917024,0.3393991868225502,0.5329933957798439,-0.1855753301123107,0.06925978461838149,-0.07808321643854503,0.9006974881570611,0.07124779906727242,0.09422428546515726,0.5407399141764236,1.139091258050434,-0.04603088538534449,-0.2310459535046407,0.3554728972875272,1.090030165460645,-0.08020584231676897,-0.5282978525119022,0.02239988742804497,479.4871794871795,784.1025641025641,784.5054945054945,711.5750915750916,612.8571428571429,-0.319763,0.086914,0.936951,6.003876,-3.626251,0.089722,1,1,1,1,1,100.000000
2023-09-08 13:14:30.679,,,,,,,,,,,,,,,,,,,,,,,,,,,,,,,,,,,,,,/muse/elements/blink
2023-09-08 13:14:31.490,,,,,,,,,,,,,,,,,,,,,,,,,,,,,,,,,,,,,,/muse/elements/blink
2023-09-08 13:14:31.544,0.3727486804241154,0.07760477216286227,0.1488497509756985,0.1060371238346334,0.7056669620117585,-0.4125511209301528,-0.06042410506356678,0.5252576445055031,0.556340228212352,0.0006663547148713834,0.1301902767070325,0.681743129683297,1.067894500691004,-0.1702485673405119,-0.3463449403379746,0.4512917350944057,1.041449296837695,-0.2460942698422171,-0.5424562536967538,0.3674270850776725,66.08058608058609,770,779.6703296703297,608.4249084249085,555.6410256410256,-0.321777,0.076965,0.937927,4.381409,-4.037476,2.213135,1,1,1,1,1,100.000000
2023-09-08 13:14:31.802,,,,,,,,,,,,,,,,,,,,,,,,,,,,,,,,,,,,,,/muse/elements/blink
2023-09-08 13:14:32.310,,,,,,,,,,,,,,,,,,,,,,,,,,,,,,,,,,,,,,/muse/elements/blink
2023-09-08 13:14:32.544,0.5640816545289817,0.2522783714975195,0.1344995440554527,0.1091330007113145,1.190381498367948,0.09471228417272597,-0.1014353049430729,0.7322313693325263,1.306367992707532,0.1193638302612272,0.4921455045352853,0.7903197928449478,1.043147003649571,-0.1806410537925316,-0.3061139190312629,0.5358737646055673,0.9834432119090961,-0.4351157560177366,-0.4129309860928891,0.2243650594304068,311.0622710622711,779.2673992673992,784.9084249084249,668.0586080586081,526.6300366300367,-0.303467,0.111267,0.931030,4.104767,-4.732819,1.532745,1,1,1,1,1,100.000000
2023-09-08 13:14:32.597,,,,,,,,,,,,,,,,,,,,,,,,,,,,,,,,,,,,,,/muse/elements/blink
2023-09-08 13:14:33.015,,,,,,,,,,,,,,,,,,,,,,,,,,,,,,,,,,,,,,/muse/elements/blink
2023-09-08 13:14:33.544,0.6869335524483811,0.2090468344138508,0.185678894722539,0.455736460475427,1.389548169293125,0.06271804896731438,-0.04969844935795707,0.7173261402669759,1.306367992707532,-0.01770019886306944,0.4590724289898844,0.5257365602097407,1.096894584887302,0.01460747237605882,-0.1799245562765374,0.4491870411325279,1.026109644788169,-0.3733631047667033,-0.4889068691355957,0.1972523826409045,39.89010989010989,774.0293040293041,790.952380952381,603.5897435897436,479.0842490842491,-0.311890,0.101624,0.979858,2.998199,-5.121613,-0.097198,1,1,1,1,1,100.000000
2023-09-08 13:14:33.633,,,,,,,,,,,,,,,,,,,,,,,,,,,,,,,,,,,,,,/muse/elements/blink
2023-09-08 13:14:33.900,,,,,,,,,,,,,,,,,,,,,,,,,,,,,,,,,,,,,,/muse/elements/blink
2023-09-08 13:14:34.142,,,,,,,,,,,,,,,,,,,,,,,,,,,,,,,,,,,,,,/muse/elements/blink
2023-09-08 13:14:34.543,0.6869335524483811,-0.01162781346450057,-0.2594552599534602,0.4805763177436017,1.389548169293125,-0.3387407642636339,-0.1360861362167367,0.6689034318085116,1.306367992707532,-0.08884411849212849,0.1052748314843704,0.6135589362570548,1.096894584887302,-0.1622670314690685,-0.1518476555673584,0.4956945970673037,1.026109644788169,-0.4065468296259682,-0.6231273129466035,0.2608426029248976,168.021978021978,777.2527472527473,791.7582417582418,634.6153846153846,528.2417582417582,-0.332764,0.089172,0.955688,0.500946,-7.155304,-3.499146,1,1,1,1,1,100.000000
2023-09-08 13:14:35.543,0.4374362151986194,-0.06768215814582709,-0.2620402385131185,0.3700723359037135,0.6808126559412035,-0.2100132397483261,-0.2059007941905231,0.5295029190826634,0.836429525350154,-0.06323595778276653,0.1086284688453151,0.668229937040191,0.9279584925097546,-0.09385854704354692,-0.2134791946802479,0.5600973616780078,0.7769280321026171,-0.4239522976110674,-0.6452583683895242,0.1816263757107345,484.7252747252747,778.8644688644689,779.6703296703297,715.2014652014652,699.8901098901099,-0.313232,0.125366,0.930359,1.338348,-1.712189,-1.704712,1,1,1,1,1,100.000000
2023-09-08 13:14:35.876,,,,,,,,,,,,,,,,,,,,,,,,,,,,,,,,,,,,,,/muse/elements/blink
2023-09-08 13:14:36.543,0.5350351393429612,0.1113732316476715,-0.2730622888407331,0.3537273339853371,0.5628239874282255,-0.09369992472658609,-0.2001781425957588,0.4670468491890395,0.6943722991560343,0.04218339210282782,0.09478174016097775,0.6099704428705258,0.8668210653933218,-0.1017027357924584,-0.226684116963655,0.5594193279520882,0.701314592743737,-0.4607980929203749,-0.5699830702979946,0.1578318299700848,94.68864468864469,773.2234432234433,795.3846153846154,623.7362637362637,560.4761904761905,-0.313477,0.088562,0.923706,0.605621,-4.822540,0.605621,1,1,1,1,1,100.000000
2023-09-08 13:14:36.580,,,,,,,,,,,,,,,,,,,,,,,,,,,,,,,,,,,,,,/muse/elements/jaw_clench
2023-09-08 13:14:36.844,,,,,,,,,,,,,,,,,,,,,,,,,,,,,,,,,,,,,,/muse/elements/blink
2023-09-08 13:14:37.086,,,,,,,,,,,,,,,,,,,,,,,,,,,,,,,,,,,,,,/muse/elements/blink
2023-09-08 13:14:37.371,,,,,,,,,,,,,,,,,,,,,,,,,,,,,,,,,,,,,,/muse/elements/blink
2023-09-08 13:14:37.544,0.6821364222780324,0.5317630608791547,0.4478136197208851,0.3365124547371195,0.5024740768670946,0.375932670321341,-0.01557851010343746,0.09568560475120251,0.6517063560328051,0.399699994022261,0.4712057751303813,0.5410713535967869,0.861103619752088,-0.1032448392942407,0.2148835577416814,0.6603562410140514,0.778833005797623,-0.3460404036439465,-0.1024919614082766,0.2528355780275038,303.4065934065934,774.0293040293041,785.3113553113553,664.0293040293041,484.3223443223443,-0.341553,0.099365,0.941406,2.833710,-4.456177,1.876678,1,1,1,1,1,100.000000
2023-09-08 13:14:38.070,,,,,,,,,,,,,,,,,,,,,,,,,,,,,,,,,,,,,,/muse/elements/blink
2023-09-08 13:14:38.311,,,,,,,,,,,,,,,,,,,,,,,,,,,,,,,,,,,,,,/muse/elements/blink
2023-09-08 13:14:38.544,0.6821364222780324,0.6065436495286585,0.4430720955212321,1.031745403488354,0.5024740768670946,0.3491462076366474,-0.08165925926429227,0.8181567883488445,0.6517063560328051,0.3871148527622238,0.4825847945084367,0.6424170188742185,0.861103619752088,-0.1400561909495572,0.009401712904213971,0.5169957157667184,0.778833005797623,-0.3961917242318241,-0.2929275727816384,0.1811440838316243,623.3333333333334,767.1794871794872,792.1611721611722,765.1648351648352,606.4102564102565,-0.302917,0.094727,0.938904,2.168274,-3.364563,1.353302,1,1,1,1,1,100.000000
2023-09-08 13:14:38.597,,,,,,,,,,,,,,,,,,,,,,,,,,,,,,,,,,,,,,/muse/elements/blink
2023-09-08 13:14:38.795,,,,,,,,,,,,,,,,,,,,,,,,,,,,,,,,,,,,,,/muse/elements/blink
2023-09-08 13:14:39.101,,,,,,,,,,,,,,,,,,,,,,,,,,,,,,,,,,,,,,/muse/elements/blink
2023-09-08 13:14:39.302,,,,,,,,,,,,,,,,,,,,,,,,,,,,,,,,,,,,,,/muse/elements/blink
2023-09-08 13:14:39.544,0.6821364222780324,0.1126871285541342,0.2849552681216022,1.079506884205363,0.5024740768670946,-0.08750720068982733,-0.04812803553330895,0.5981232847966425,0.6517063560328051,0.06917994678143406,0.04959426294154146,0.7370562909454513,0.861103619752088,-0.08139456781751747,-0.1985227288333374,0.5092077313328086,0.778833005797623,-0.3358885043354955,-0.6958154524486209,0.1404988386725797,152.7106227106227,770.8058608058608,789.3406593406594,635.4212454212454,502.8571428571429,-0.320984,0.085571,0.936584,-1.742096,-5.158997,3.985138,1,1,1,1,1,100.000000
2023-09-08 13:14:39.917,,,,,,,,,,,,,,,,,,,,,,,,,,,,,,,,,,,,,,/muse/elements/blink
2023-09-08 13:14:40.138,,,,,,,,,,,,,,,,,,,,,,,,,,,,,,,,,,,,,,/muse/elements/blink
2023-09-08 13:14:40.423,,,,,,,,,,,,,,,,,,,,,,,,,,,,,,,,,,,,,,/muse/elements/blink
2023-09-08 13:14:40.547,0.4145858973357595,0.3589391336853111,0.5742665500327986,1.027798509967855,0.9218642783574497,0.1327359432871625,0.2276573995746551,1.114361216784304,0.7814900442481816,0.2592051836466724,0.3847526818329159,1.094569305764594,1.009084208839986,-0.003222259340913306,-0.1037163851307952,0.5502194273414451,1.043065894004069,-0.2610974438523506,-0.5395666148547923,0.3313151822052945,379.1575091575092,778.0586080586081,781.6849816849817,657.1794871794872,594.7252747252747,-0.319336,0.076904,0.921021,-1.570129,-3.312225,-4.695435,1,1,1,1,1,100.000000
2023-09-08 13:14:41.553,0.4904533357740809,0.4945634997477427,0.06006535433117974,0.8515779167373236,0.9513798689131401,0.3084943498627311,0.1104360174161575,1.271977262459773,0.7348754163431686,0.3969562429906449,0.3948209320857549,1.086864749853336,1.00439163065285,-0.01111000430221038,-0.3595828790323091,0.5464090340982883,1.007628541213319,-0.2498761454803155,-0.716541548425745,0.4069805233957685,67.28937728937728,766.7765567765568,780.0732600732601,615.6776556776557,567.7289377289377,-0.337830,0.100647,0.934082,3.020630,-2.130890,-0.284119,1,1,1,1,1,100.000000
2023-09-08 13:14:42.045,,,,,,,,,,,,,,,,,,,,,,,,,,,,,,,,,,,,,,/muse/elements/blink
2023-09-08 13:14:42.330,,,,,,,,,,,,,,,,,,,,,,,,,,,,,,,,,,,,,,/muse/elements/blink
2023-09-08 13:14:42.544,0.5575408711933518,0.4004568612531675,-0.3038008619416102,0.01299372348806289,0.7060801756857872,0.1140091876744074,-0.2034765423208899,0.3946695576970375,0.7447465691656499,0.3746836973173255,-0.1229286878949019,0.4289451186674815,0.7769430455970997,-0.229657166703567,-0.4133209246068998,0.3095467181981235,0.885390267420938,-0.4645706062621975,-0.7623370529665413,0.2167325865025056,230.0732600732601,776.8498168498169,776.8498168498169,641.0622710622711,592.7106227106227,-0.318237,0.067871,0.928589,-4.164581,-0.246735,7.910461,1,1,1,1,1,100.000000
2023-09-08 13:14:42.572,,,,,,,,,,,,,,,,,,,,,,,,,,,,,,,,,,,,,,/muse/elements/blink
2023-09-08 13:14:43.182,,,,,,,,,,,,,,,,,,,,,,,,,,,,,,,,,,,,,,/muse/elements/blink
2023-09-08 13:14:43.543,0.5055359099446338,0.391739247305402,-0.1717337898903238,0.3365086794584666,0.6474668132943595,-0.09277336019658049,0.06666066800746677,0.527570876784035,0.9162088042102784,0.3185631486860225,0.1725306922003171,0.9322665794506503,0.8499264794790756,-0.1679659071038621,-0.2193007074639893,0.2825401044047434,0.8183511836690489,-0.4856563631393357,-0.5990051238137277,0.1838790561314139,580.2197802197802,784.1025641025641,778.0586080586081,728.4981684981685,686.996336996337,-0.335876,0.155945,0.910095,6.026306,-2.601929,11.110535,1,1,1,1,1,100.000000
2023-09-08 13:14:43.971,,,,,,,,,,,,,,,,,,,,,,,,,,,,,,,,,,,,,,/muse/elements/blink
2023-09-08 13:14:44.059,,,,,,,,,,,,,,,,,,,,,,,,,,,,,,,,,,,,,,/muse/elements/jaw_clench
2023-09-08 13:14:44.190,,,,,,,,,,,,,,,,,,,,,,,,,,,,,,,,,,,,,,/muse/elements/blink
2023-09-08 13:14:44.551,0.4794170712304062,0.4628891071575539,0.1599139319383548,0.6520310459317027,0.610528715797018,0.1932065365456834,0.1034983575725132,0.7902690490763761,0.8997859090268815,-0.09959404370313027,0.13302687152943,0.9300068947195756,0.9304950786156614,0.001898064165135713,-0.07978918949006954,0.3136616619900741,0.7678384069772355,-0.2459912039755766,-0.6299043403117747,0.2280216431454986,144.6520146520147,774.4322344322345,780.4761904761905,631.7948717948718,615.2747252747253,-0.324768,0.166077,0.916626,0.949554,-3.611298,-2.452393,1,1,1,1,1,100.000000
2023-09-08 13:14:45.544,0.4794170712304062,0.4505232756285967,0.05750769468731912,0.2496872491907467,0.610528715797018,0.05918323900746932,-0.2172733419919694,0.2816443659441267,0.8997859090268815,0.09806727531477687,-0.03281533201514818,0.6161781325906499,0.9304950786156614,0.05553395632001446,-0.2013987127098046,0.549133288349013,0.7678384069772355,-0.3796822693614001,-0.6082186093349909,0.235406070280365,349.7435897435898,786.5201465201466,787.7289377289378,675.7142857142858,647.9120879120879,-0.346802,0.103271,0.920837,-0.919647,-1.779480,2.317810,1,1,1,1,1,100.000000
2023-09-08 13:14:46.544,0.4794170712304062,0.02683950294705692,-0.02999854812264285,0.3688204864579369,0.610528715797018,-0.4252528269525829,-0.288126260641203,0.4995632476717507,0.8997859090268815,0.1310549489940244,0.09196972804527354,0.957648014971067,0.9304950786156614,-0.1276822964015508,-0.152068707845507,0.6250606618681936,0.7678384069772355,-0.4083578761665457,-0.6003630108545337,0.2927492948188002,701.0989010989011,784.1025641025641,780.0732600732601,763.956043956044,634.6153846153846,-0.357239,0.120789,0.924500,-0.807495,-2.198181,-5.061798,1,1,1,1,1,100.000000
2023-09-08 13:14:46.921,,,,,,,,,,,,,,,,,,,,,,,,,,,,,,,,,,,,,,/muse/elements/blink
2023-09-08 13:14:47.118,,,,,,,,,,,,,,,,,,,,,,,,,,,,,,,,,,,,,,/muse/elements/blink
2023-09-08 13:14:47.544,0.4794170712304062,-0.3388228441974042,-0.2932898503956861,0.1379865997024919,0.610528715797018,-0.2829508807251139,-0.1706351411921752,0.3393224038758267,0.8997859090268815,0.09667765876241585,0.1098350371729595,0.9344912570006162,0.9304950786156614,-0.2740048107306207,-0.1779228761533014,0.5317636814291673,0.7678384069772355,-0.4761979820525851,-0.5579091109119337,0.07546523627451734,163.992673992674,791.3553113553114,782.893772893773,631.7948717948718,536.7032967032967,-0.348267,0.106628,0.904053,3.364563,-2.325287,-1.734619,1,1,1,1,1,100.000000
2023-09-08 13:14:47.928,,,,,,,,,,,,,,,,,,,,,,,,,,,,,,,,,,,,,,/muse/elements/blink
2023-09-08 13:14:48.148,,,,,,,,,,,,,,,,,,,,,,,,,,,,,,,,,,,,,,/muse/elements/blink
2023-09-08 13:14:48.434,,,,,,,,,,,,,,,,,,,,,,,,,,,,,,,,,,,,,,/muse/elements/blink
2023-09-08 13:14:48.543,0.4794170712304062,-0.1794484482927885,-0.0293724674582437,0.1004117659337847,0.610528715797018,-0.2645197566118582,-0.1057377132565464,0.5306634390144073,0.8997859090268815,-0.001860411781166679,-0.1156592656410714,0.4934764253890681,0.9304950786156614,-0.03249034215386434,-0.2968183278561311,0.6082127612975132,0.7678384069772355,-0.2747671889935447,-0.5002616633924059,0.2747873441683363,336.4468864468865,784.9084249084249,776.8498168498169,578.2051282051282,680.1465201465202,-0.348572,0.096924,0.903687,-0.493469,-0.859833,-8.411407,1,1,1,1,1,100.000000
2023-09-08 13:14:48.675,,,,,,,,,,,,,,,,,,,,,,,,,,,,,,,,,,,,,,/muse/elements/jaw_clench
2023-09-08 13:14:48.763,,,,,,,,,,,,,,,,,,,,,,,,,,,,,,,,,,,,,,/muse/elements/blink
2023-09-08 13:14:48.939,,,,,,,,,,,,,,,,,,,,,,,,,,,,,,,,,,,,,,/muse/elements/blink
2023-09-08 13:14:48.939,,,,,,,,,,,,,,,,,,,,,,,,,,,,,,,,,,,,,,/muse/elements/jaw_clench
2023-09-08 13:14:49.543,0.4794170712304062,-0.1311472935244669,-0.2583716312873959,-0.1128340277921311,0.610528715797018,-0.03035684388999596,-0.2881645323277802,0.6264416782337107,0.8997859090268815,-0.07049719061080817,0.1702775310626642,0.3945239599104784,0.9304950786156614,0.1023921681607084,-0.08492817791823049,0.4137170884223316,0.7678384069772355,-0.2173706965903376,-0.4048576164982568,0.2252450663225461,821.1721611721612,788.1318681318681,782.893772893773,790.1465201465202,670.0732600732601,-0.342041,0.097778,0.921326,1.861725,-1.009369,-0.000000,1,1,1,1,1,100.000000
2023-09-08 13:14:50.543,0.4794170712304062,0.06962805319971069,0.2085703258500103,0.2976879165052856,0.610528715797018,0.1735616383539458,-0.0515310881883552,0.5236300571337829,0.8997859090268815,0.07043323874271434,0.1353082509996883,0.4244299221789601,0.9304950786156614,-0.03015735364648823,0.05270916060407416,0.557835247955513,0.7678384069772355,-0.1084273401497381,-0.4099171246267411,-0.01930142255517764,1053.663003663004,791.7582417582418,792.1611721611722,889.2673992673992,755.8974358974359,-0.253906,-0.227295,0.937744,6.945953,-1.398163,-3.476715,1,1,1,1,1,100.000000
2023-09-08 13:14:50.991,,,,,,,,,,,,,,,,,,,,,,,,,,,,,,,,,,,,,,/muse/elements/blink
2023-09-08 13:14:51.189,,,,,,,,,,,,,,,,,,,,,,,,,,,,,,,,,,,,,,/muse/elements/blink
2023-09-08 13:14:51.549,0.4794170712304062,0.5559285564169714,0.4209420061929838,0.5294363388722314,0.610528715797018,0.2371038776765833,-0.05377928101623173,0.5915148327980824,0.8997859090268815,0.2192603775287494,-0.175243210540921,0.8582972283037746,0.9304950786156614,-0.0877087259990957,-0.03606962625907398,0.6529159449617499,0.7678384069772355,-0.2535490726786371,-0.4064264565139173,0.08750382349347495,639.047619047619,789.7435897435897,784.9084249084249,736.959706959707,749.047619047619,-0.304993,-0.047241,0.929199,4.979553,-2.945862,2.639313,1,1,1,1,1,100.000000
2023-09-08 13:14:51.799,,,,,,,,,,,,,,,,,,,,,,,,,,,,,,,,,,,,,,/muse/elements/blink
2023-09-08 13:14:52.084,,,,,,,,,,,,,,,,,,,,,,,,,,,,,,,,,,,,,,/muse/elements/blink
2023-09-08 13:14:52.520,,,,,,,,,,,,,,,,,,,,,,,,,,,,,,,,,,,,,,/muse/elements/blink
2023-09-08 13:14:52.542,0.2276587951074666,0.1347829708994801,-0.109457269465079,0.3957108382991404,0.2963565509222765,-0.2661727515471909,-0.5312528630310335,0.2624640908972612,0.137391297491492,0.02210928632993457,-0.1475857648531524,0.7847468845009078,0.7454335859596004,-0.1781052131149099,-0.188250329171911,0.6089138714505589,0.6632946739129195,-0.4406152434386446,-0.5136961184916669,0.2331312328931809,939.2307692307693,787.7289377289378,785.3113553113553,825.2014652014652,689.0109890109891,-0.316711,-0.039062,0.921204,1.831818,0.314026,0.328979,1,1,1,1,1,100.000000
2023-09-08 13:14:53.221,,,,,,,,,,,,,,,,,,,,,,,,,,,,,,,,,,,,,,/muse/elements/blink
2023-09-08 13:14:53.544,0.4888253323917718,-0.2825139807046129,-0.4106874198836489,0.4202834652422339,0.4542554068286067,-0.1865422196371512,-0.5152129448719602,0.4979428534532517,0.3554728058484341,0.05315841563149672,-0.1308827454981117,0.3662946294993132,0.7410740964169812,-0.1224797611797232,-0.2744303186344818,0.5188083518416485,0.6608782832713833,-0.4551591216899005,-0.5086029071632914,0.2566983768956873,481.5018315018315,776.8498168498169,780.8791208791209,687.3992673992674,560.8791208791209,-0.335449,-0.010010,0.926392,0.702820,-4.844971,-0.127106,1,1,1,1,1,100.000000
2023-09-08 13:14:54.247,,,,,,,,,,,,,,,,,,,,,,,,,,,,,,,,,,,,,,/muse/elements/jaw_clench
2023-09-08 13:14:54.422,,,,,,,,,,,,,,,,,,,,,,,,,,,,,,,,,,,,,,/muse/elements/blink
2023-09-08 13:14:54.543,0.550349008065349,-0.1268439455987192,-0.3363619587146541,0.1995163234856585,0.5129235996244389,-0.101355424713926,-0.2941108639175722,0.3902934922258565,1.02845817897642,0.1506325240623143,0.3024492239589526,0.2060973907118044,0.5872009797729509,-0.01072604372860181,-0.08096732343354573,0.412018015582985,0.6611610757207993,-0.4640240554647549,-0.481199614448468,0.2049372601756785,846.959706959707,779.2673992673992,785.7142857142858,794.981684981685,770.4029304029305,-0.316223,0.056519,0.930176,3.080444,-1.906586,-2.572021,1,1,1,1,1,100.000000
2023-09-08 13:14:54.772,,,,,,,,,,,,,,,,,,,,,,,,,,,,,,,,,,,,,,/muse/elements/jaw_clench
2023-09-08 13:14:55.038,,,,,,,,,,,,,,,,,,,,,,,,,,,,,,,,,,,,,,/muse/elements/blink
2023-09-08 13:14:55.234,,,,,,,,,,,,,,,,,,,,,,,,,,,,,,,,,,,,,,/muse/elements/blink
2023-09-08 13:14:55.543,0.4475656044267565,0.6769617159607686,0.4195446624650668,0.2964261052202903,0.4983555380159951,0.110032584780431,0.162886763384969,0.114270072326914,1.031301574771945,0.3914879798744563,0.4840616512785864,0.1476820031322378,0.5246910548892879,-0.004555710158354203,0.1525683871699488,0.3478766766496091,0.6446330286329095,-0.4128131172951955,-0.2629958161776466,0.1913849024645554,1186.630036630037,799.0109890109891,792.5641025641025,897.3260073260074,910.2197802197802,-0.306946,0.043701,0.936462,-1.854248,-4.949646,-5.345917,1,1,1,1,1,100.000000
2023-09-08 13:14:56.350,,,,,,,,,,,,,,,,,,,,,,,,,,,,,,,,,,,,,,/muse/elements/jaw_clench
2023-09-08 13:14:56.543,0.2841951932005328,0.3756947685085099,0.4274996413673252,0.2964261052202903,0.714780419794144,0.06379985242858208,0.01419654268142672,0.114270072326914,0.6568017861929465,0.3961068081527077,0.1164399537874668,0.1476820031322378,0.5327508509803041,-0.1446481122330487,-0.1668128360343893,0.3478766766496091,0.6092595658053451,-0.5275346382227413,-0.5320821380195081,0.1913849024645554,1084.688644688645,512.9304029304029,809.4871794871796,682.5641025641025,943.2600732600733,-0.234192,0.089722,0.930847,5.749664,-7.267456,-1.278534,1,1,1,1,1,100.000000
2023-09-08 13:14:56.677,,,,,,,,,,,,,,,,,,,,,,,,,,,,,,,,,,,,,,/muse/elements/blink
2023-09-08 13:14:56.962,,,,,,,,,,,,,,,,,,,,,,,,,,,,,,,,,,,,,,/muse/elements/blink
2023-09-08 13:14:57.398,,,,,,,,,,,,,,,,,,,,,,,,,,,,,,,,,,,,,,/muse/elements/blink
2023-09-08 13:14:57.543,0.3297577277414098,0.006965552670643739,0.215657480590006,0.2964261052202903,0.8328265572139476,0.04382816488336187,-0.1279910230082242,0.114270072326914,0.6363627633387526,0.1186707032189823,-0.1443240063899155,0.1476820031322378,0.6063860880512019,-0.2257877275411814,-0.3077023523186367,0.3478766766496091,0.6029125158068748,-0.6001161123092574,-0.6623740084319614,0.1913849024645554,1101.208791208791,807.0695970695971,788.1318681318681,877.5824175824176,901.7582417582418,-0.221985,0.057800,0.970215,1.682281,-4.127197,-2.190704,1,1,1,1,1,100.000000
2023-09-08 13:14:57.664,,,,,,,,,,,,,,,,,,,,,,,,,,,,,,,,,,,,,,/muse/elements/blink
2023-09-08 13:14:57.794,,,,,,,,,,,,,,,,,,,,,,,,,,,,,,,,,,,,,,/muse/elements/jaw_clench
2023-09-08 13:14:58.082,,,,,,,,,,,,,,,,,,,,,,,,,,,,,,,,,,,,,,/muse/elements/blink
2023-09-08 13:14:58.542,0.3297577277414098,0.02414492618097219,-0.007083216342184322,0.2964261052202903,0.8328265572139476,-0.1053215596037602,-0.1958081598318717,0.114270072326914,0.6363627633387526,-0.2424651575415178,0.3057855221336349,0.1476820031322378,0.6063860880512019,0.09811544783428254,0.4511217860899168,0.3478766766496091,0.6029125158068748,-0.01607106578098289,0.1610657647847669,0.1913849024645554,1290.586080586081,803.4432234432235,790.5494505494506,935.2014652014652,898.1318681318681,-0.176636,0.064636,0.965454,3.237457,-14.340515,-4.396362,1,2,1,1,2,100.000000
2023-09-08 13:14:58.893,,,,,,,,,,,,,,,,,,,,,,,,,,,,,,,,,,,,,,/muse/elements/blink
2023-09-08 13:14:59.329,,,,,,,,,,,,,,,,,,,,,,,,,,,,,,,,,,,,,,/muse/elements/blink
2023-09-08 13:14:59.543,0.3297577277414098,0.3652687462074499,0.03545711059317712,0.9470796227598334,0.8328265572139476,0.07139370588309916,-0.19057995015156,0.5196624972831345,0.6363627633387526,0.03569172082691593,0.3081832084639433,0.8025601834363802,0.6063860880512019,0.04444038962476199,0.1288159971933311,0.4488130793801592,0.6029125158068748,-0.1699102843903061,-0.2679564606857683,0.4202906617415649,1231.355311355311,798.2051282051282,782.4908424908425,948.0952380952381,964.6153846153846,0.044373,0.060120,0.973145,-1.428070,2.018738,9.749756,1,1,1,1,1,100.000000
2023-09-08 13:14:59.811,,,,,,,,,,,,,,,,,,,,,,,,,,,,,,,,,,,,,,/muse/elements/blink
2023-09-08 13:15:00.011,,,,,,,,,,,,,,,,,,,,,,,,,,,,,,,,,,,,,,/muse/elements/blink
2023-09-08 13:15:00.543,0.3688486994862255,0.5467062436970679,0.09473838294386831,0.7451747977699399,0.3378878616125898,0.1926467651315344,-0.04647234928870916,0.3401194322080666,0.5120494048745977,0.2397945235679692,0.2605102915759791,0.7748371089616554,0.6226596242350423,-0.1789955037746138,-0.1604197895400059,0.4843723867339356,0.4317285483083081,-0.538462364022179,-0.7358938950492679,0.1681828622248124,1120.952380952381,795.7875457875458,786.9230769230769,906.5934065934066,782.893772893773,0.029724,0.068665,0.979736,2.781372,2.773895,2.123413,1,1,1,1,1,100.000000
2023-09-08 13:15:00.607,,,,,,,,,,,,,,,,,,,,,,,,,,,,,,,,,,,,,,/muse/elements/blink
2023-09-08 13:15:00.939,,,,,,,,,,,,,,,,,,,,,,,,,,,,,,,,,,,,,,/muse/elements/blink
2023-09-08 13:15:01.245,,,,,,,,,,,,,,,,,,,,,,,,,,,,,,,,,,,,,,/muse/elements/blink
2023-09-08 13:15:01.466,,,,,,,,,,,,,,,,,,,,,,,,,,,,,,,,,,,,,,/muse/elements/blink
2023-09-08 13:15:01.543,0.4669931098141261,0.1925179752763557,-0.04890431719543278,0.5759071514387052,0.4357130566360697,0.09281328001537077,-0.1496920354832328,0.2257518746185579,0.5150613184113281,0.221485780628498,-0.1703467459256535,0.6039251611933609,0.659533402777061,-0.0647652960220229,-0.02309805550298553,0.4731520997969823,0.4347402903800809,-0.6059609784766077,-0.63222453969381,0.04004677114062081,1422.344322344322,799.8168498168499,791.3553113553114,965.8241758241759,922.3076923076924,-0.305969,0.082764,0.937744,4.000092,-3.641205,-5.233765,1,1,1,1,1,100.000000
2023-09-08 13:15:01.683,,,,,,,,,,,,,,,,,,,,,,,,,,,,,,,,,,,,,,/muse/elements/blink
2023-09-08 13:15:02.058,,,,,,,,,,,,,,,,,,,,,,,,,,,,,,,,,,,,,,/muse/elements/blink
2023-09-08 13:15:02.255,,,,,,,,,,,,,,,,,,,,,,,,,,,,,,,,,,,,,,/muse/elements/blink
2023-09-08 13:15:02.553,0.6599129052905364,0.302399592868527,0.1144670840750959,0.4874297105534739,0.5742254943293366,0.02642029638845495,-0.03095464147496222,0.3975796845637255,0.3866841963251057,0.1647479053361766,0.1762394763545535,0.5976049787511543,0.6942162301625819,0.06654224771653665,0.2013353774643563,0.5567986067616342,0.4209671444543928,-0.3435215642729708,-0.3626697741538984,0.05872879243393165,1166.483516483516,798.2051282051282,791.7582417582418,863.4798534798535,860.6593406593407,-0.384460,0.073181,0.922791,5.966492,-20.621033,-0.388794,1,1,1,1,1,100.000000
2023-09-08 13:15:02.870,,,,,,,,,,,,,,,,,,,,,,,,,,,,,,,,,,,,,,/muse/elements/blink
2023-09-08 13:15:03.069,,,,,,,,,,,,,,,,,,,,,,,,,,,,,,,,,,,,,,/muse/elements/blink
2023-09-08 13:15:03.543,0.6599129052905364,0.2805815822410223,0.07311367497526293,0.4874297105534739,0.5742254943293366,0.3087740614109779,0.04434574484015311,0.3975796845637255,0.3866841963251057,0.4305270273592733,0.2215262622542544,0.5976049787511543,0.6942162301625819,0.1146046082678582,0.1241833451831319,0.5567986067616342,0.4209671444543928,-0.4313284437179721,-0.1374352369261956,0.05872879243393165,1257.948717948718,788.5347985347986,796.5934065934066,947.2893772893773,866.3003663003664,-0.241211,0.110535,0.959839,-25.974426,4.149628,52.412415,1,2,1,1,2,100.000000
2023-09-08 13:15:03.681,,,,,,,,,,,,,,,,,,,,,,,,,,,,,,,,,,,,,,/muse/elements/blink
2023-09-08 13:15:03.904,,,,,,,,,,,,,,,,,,,,,,,,,,,,,,,,,,,,,,/muse/elements/blink
2023-09-08 13:15:04.169,,,,,,,,,,,,,,,,,,,,,,,,,,,,,,,,,,,,,,/muse/elements/blink
2023-09-08 13:15:04.366,,,,,,,,,,,,,,,,,,,,,,,,,,,,,,,,,,,,,,/muse/elements/blink
2023-09-08 13:15:04.366,,,,,,,,,,,,,,,,,,,,,,,,,,,,,,,,,,,,,,/muse/elements/jaw_clench
2023-09-08 13:15:04.542,0.6599129052905364,0.9737161867622306,0.7911040922920213,1.224686744486108,0.5742254943293366,0.6027106005077889,0.1978587553778918,1.213426350895784,0.3866841963251057,0.3682800731681871,0.4767131882913098,1.029672872817475,0.6942162301625819,0.06596493213187227,0.01205069838906237,0.6943205922342106,0.4209671444543928,-0.2487575631641406,-0.01001139241053203,0.5069999768358847,1473.919413919414,796.1904761904763,793.3699633699634,977.1062271062272,942.8571428571429,-0.302673,0.084412,0.933228,3.469238,-6.968384,-11.185303,1,1,1,1,1,100.000000
2023-09-08 13:15:04.694,,,,,,,,,,,,,,,,,,,,,,,,,,,,,,,,,,,,,,/muse/elements/blink
2023-09-08 13:15:04.803,,,,,,,,,,,,,,,,,,,,,,,,,,,,,,,,,,,,,,/muse/elements/jaw_clench
2023-09-08 13:15:04.998,,,,,,,,,,,,,,,,,,,,,,,,,,,,,,,,,,,,,,/muse/elements/blink
2023-09-08 13:15:05.217,,,,,,,,,,,,,,,,,,,,,,,,,,,,,,,,,,,,,,/muse/elements/blink
2023-09-08 13:15:05.543,0.6599129052905364,0.8017831744361767,0.7477624794632317,1.024925152677931,0.5742254943293366,0.4277286421135377,0.2057073087547968,1.095480055791015,0.3866841963251057,0.1805224429993588,0.4076780338054233,1.191733633092915,0.6942162301625819,-0.1414847143645681,-0.01077200208036119,0.6754496839798546,0.4209671444543928,-0.4856416284724003,-0.1735704787064969,0.4006306892382265,1477.142857142857,793.3699633699634,789.7435897435897,979.92673992674,1114.505494505494,-0.312073,0.074341,0.935608,1.502838,-3.588867,-1.697235,1,1,1,1,1,100.000000
2023-09-08 13:15:05.721,,,,,,,,,,,,,,,,,,,,,,,,,,,,,,,,,,,,,,/muse/elements/blink
2023-09-08 13:15:05.917,,,,,,,,,,,,,,,,,,,,,,,,,,,,,,,,,,,,,,/muse/elements/blink
2023-09-08 13:15:06.095,,,,,,,,,,,,,,,,,,,,,,,,,,,,,,,,,,,,,,/muse/elements/blink
2023-09-08 13:15:06.355,,,,,,,,,,,,,,,,,,,,,,,,,,,,,,,,,,,,,,/muse/elements/blink
2023-09-08 13:15:06.543,0.6599129052905364,0.1584265120391034,0.2352752721851955,0.6184860920373085,0.5742254943293366,0.05690221088545333,0.02966879370955294,0.741936826880608,0.3866841963251057,0.2517927086437233,0.4131294332284658,1.148645333466484,0.6942162301625819,-0.2034318316886642,-0.2468800524315737,0.4973580035710832,0.4209671444543928,-0.5772400923781447,-0.6314868731379121,0.2751151074749638,1314.761904761905,792.5641025641025,791.7582417582418,929.5604395604396,853.0036630036631,-0.310486,0.070862,0.937317,3.394470,-4.044952,-9.106750,1,1,1,1,1,100.000000
2023-09-08 13:15:06.620,,,,,,,,,,,,,,,,,,,,,,,,,,,,,,,,,,,,,,/muse/elements/blink
2023-09-08 13:15:07.037,,,,,,,,,,,,,,,,,,,,,,,,,,,,,,,,,,,,,,/muse/elements/blink
2023-09-08 13:15:07.235,,,,,,,,,,,,,,,,,,,,,,,,,,,,,,,,,,,,,,/muse/elements/blink
2023-09-08 13:15:07.542,0.6599129052905364,-0.06151207054398449,-0.2931233630694378,0.4952342363806032,0.5742254943293366,-0.1288582592070492,-0.04825628375223327,0.5429994083663712,0.3866841963251057,0.1380259071306208,-0.0613487616192813,0.5568248108521038,0.6942162301625819,-0.1782770516638192,-0.2223276264373532,0.4205781208648218,0.4209671444543928,-0.5792559401647831,-0.723921592481344,0.198170478030919,1406.227106227106,801.4285714285714,794.981684981685,978.7179487179487,1046.813186813187,-0.298706,0.090881,0.925659,4.530945,-3.955231,3.925323,1,1,1,1,1,100.000000
2023-09-08 13:15:07.742,,,,,,,,,,,,,,,,,,,,,,,,,,,,,,,,,,,,,,/muse/elements/blink
2023-09-08 13:15:08.444,,,,,,,,,,,,,,,,,,,,,,,,,,,,,,,,,,,,,,/muse/elements/blink
2023-09-08 13:15:08.545,0.4643169665951218,-0.1412358995524902,-0.2174425349081417,0.4958705664450083,0.6660827589749398,-0.342264342592453,-0.2123467090744039,0.472156247808573,0.8257223033418617,-0.2196281514206277,-0.1552614666618292,0.5277942761987127,0.8142182080403618,-0.135604034672806,-0.1505051191166527,0.5169237074057972,0.8864049567135848,-0.5131727253598058,-0.5914491466699274,0.2403296049592638,1102.417582417582,784.9084249084249,787.7289377289378,864.6886446886447,776.0439560439561,-0.321289,0.079590,0.920898,4.628143,-3.469238,-1.929016,1,1,1,1,1,100.000000
2023-09-08 13:15:08.777,,,,,,,,,,,,,,,,,,,,,,,,,,,,,,,,,,,,,,/muse/elements/blink
2023-09-08 13:15:09.065,,,,,,,,,,,,,,,,,,,,,,,,,,,,,,,,,,,,,,/muse/elements/blink
2023-09-08 13:15:09.395,,,,,,,,,,,,,,,,,,,,,,,,,,,,,,,,,,,,,,/muse/elements/blink
2023-09-08 13:15:09.543,0.3832409771230504,-0.1339448709669177,-0.11180342020048,0.3859696009757402,0.4176112073466057,-0.2331499008761548,-0.2041071445135521,0.2461985186660022,0.8573037344060666,0.2493624027111828,-0.09175097564056822,0.714848696969328,0.8481195803611256,-0.1143697337189191,-0.1990677182053281,0.4942294021401769,0.8170721374288791,-0.4346005092193113,-0.6154573316253946,0.1377413721771812,1332.087912087912,829.6336996336996,784.9084249084249,865.0915750915751,972.6739926739928,-0.426392,0.048584,0.914001,3.028107,-9.525452,6.796417,1,1,1,1,1,100.000000
2023-09-08 13:15:09.573,,,,,,,,,,,,,,,,,,,,,,,,,,,,,,,,,,,,,,/muse/elements/blink
2023-09-08 13:15:09.862,,,,,,,,,,,,,,,,,,,,,,,,,,,,,,,,,,,,,,/muse/elements/blink
2023-09-08 13:15:10.190,,,,,,,,,,,,,,,,,,,,,,,,,,,,,,,,,,,,,,/muse/elements/blink
2023-09-08 13:15:10.368,,,,,,,,,,,,,,,,,,,,,,,,,,,,,,,,,,,,,,/muse/elements/blink
2023-09-08 13:15:10.543,0.3894816058266424,1.187783202647235,0.5322043557258535,0.2943697372255713,0.1657129797595789,0.4217932536965817,0.336955301496953,0.3820305765350465,0.6628484476758348,0.4096378957978988,0.2142841263410852,0.5608414406916313,0.9365639440807757,-0.1540351935172919,0.06147446177813497,0.5587861409301433,0.82350739228203,-0.2321019424606302,-0.1289028510395996,0.2801917910630479,1387.692307692308,760.7326007326008,800.6227106227107,898.5347985347986,985.9706959706961,-0.446167,0.072449,0.825562,-13.503113,29.548340,13.488159,1,1,1,1,1,100.000000
2023-09-08 13:15:11.073,,,,,,,,,,,,,,,,,,,,,,,,,,,,,,,,,,,,,,/muse/elements/blink
2023-09-08 13:15:11.543,0.3894816058266424,0.8850957352885276,0.4922102644098588,0.1690341658757962,0.1657129797595789,0.204876161181357,0.3851652003027476,0.3800806812381967,0.6628484476758348,0.3922389578814087,0.4074938815717206,0.4813577252997536,0.9365639440807757,0.07426831908620028,0.3481046582202326,0.5831223307151704,0.82350739228203,-0.166877320185369,0.09304446424781729,0.3126932682181463,98.71794871794872,809.4871794871796,788.5347985347986,974.2857142857143,996.4468864468864,-0.497681,0.081055,0.847595,0.740204,-28.733368,5.607605,1,4,1,1,1,100.000000
2023-09-08 13:15:11.599,,,,,,,,,,,,,,,,,,,,,,,,,,,,,,,,,,,,,,/muse/elements/blink
2023-09-08 13:15:12.521,,,,,,,,,,,,,,,,,,,,,,,,,,,,,,,,,,,,,,/muse/elements/blink
2023-09-08 13:15:12.544,0.3894816058266424,0.2618986365928168,-0.0676785479457014,0.3148715279370957,0.1657129797595789,-0.1733999694216903,-0.3193058441939839,0.2645988320443164,0.6628484476758348,0.3723916522570582,0.2531625548583764,0.4241619744999219,0.9365639440807757,-0.003123351733536236,0.1052299287064791,0.4732755347143535,0.82350739228203,-0.4682785428350153,-0.2085428744828961,0.238575166477449,1548.864468864469,794.1758241758242,786.5201465201466,950.5128205128206,997.2527472527473,-0.346497,0.096313,0.906311,3.297272,-3.708496,-0.814972,1,4,1,1,2,100.000000
2023-09-08 13:15:12.892,,,,,,,,,,,,,,,,,,,,,,,,,,,,,,,,,,,,,,/muse/elements/blink
2023-09-08 13:15:13.239,,,,,,,,,,,,,,,,,,,,,,,,,,,,,,,,,,,,,,/muse/elements/blink
2023-09-08 13:15:13.543,0.3894816058266424,0.3616362217063936,0.1477807630977327,0.2806186083051138,0.1657129797595789,-0.1317361005618725,-0.1228247956046445,0.5683866979260082,0.6628484476758348,0.3058639801516441,0.4130928889322456,0.8486004402644785,0.9365639440807757,-0.1151046498227116,-0.1574846992930398,0.4155885103263279,0.82350739228203,-0.5024870666180485,-0.5784025360418243,0.262250077071933,43.91941391941392,797.8021978021978,788.5347985347986,991.2087912087912,1060.10989010989,-0.363892,0.088806,0.925232,-0.351410,-2.243042,-2.796326,1,4,1,1,1,100.000000
2023-09-08 13:15:13.938,,,,,,,,,,,,,,,,,,,,,,,,,,,,,,,,,,,,,,/muse/elements/blink
2023-09-08 13:15:14.353,,,,,,,,,,,,,,,,,,,,,,,,,,,,,,,,,,,,,,/muse/elements/blink
2023-09-08 13:15:14.543,0.3894816058266424,0.2469596054262865,0.1453376638960283,-0.03002762136504271,0.1657129797595789,-0.1296806981693285,-0.2538884097955255,0.5675684413305978,0.6628484476758348,0.2950540601574832,0.4091036220157317,0.8296486948020626,0.9365639440807757,-0.2171297281455761,-0.1980903694275347,0.3474688847273456,0.82350739228203,-0.4657668234701854,-0.6746529380702913,0.2494502695032539,25.78754578754579,786.9230769230769,785.7142857142858,1001.282051282051,1158.021978021978,-0.360718,0.101929,0.903259,0.508423,-3.469238,-0.994415,1,4,1,1,1,100.000000
2023-09-08 13:15:14.550,,,,,,,,,,,,,,,,,,,,,,,,,,,,,,,,,,,,,,/muse/elements/blink
2023-09-08 13:15:14.855,,,,,,,,,,,,,,,,,,,,,,,,,,,,,,,,,,,,,,/muse/elements/blink
2023-09-08 13:15:15.051,,,,,,,,,,,,,,,,,,,,,,,,,,,,,,,,,,,,,,/muse/elements/blink
2023-09-08 13:15:15.336,,,,,,,,,,,,,,,,,,,,,,,,,,,,,,,,,,,,,,/muse/elements/blink
2023-09-08 13:15:15.543,0.3894816058266424,0.04089869798861699,0.09754054151279906,0.04560243722796071,0.1657129797595789,-0.1821995839995933,-0.09470897898405507,0.1102472941222994,0.6628484476758348,0.2675811688417645,0.1556803773820837,-0.02878686007271465,0.9365639440807757,-0.03986348286591521,-0.1108444891969908,0.5401729602308438,0.82350739228203,-0.5784558296081878,-0.4536748958155611,0.3198002164201356,1608.498168498169,792.5641025641025,791.7582417582418,967.4358974358975,1004.102564102564,-0.346313,0.069336,0.912415,4.007568,-4.164581,-5.218811,1,4,1,1,1,100.000000
2023-09-08 13:15:15.576,,,,,,,,,,,,,,,,,,,,,,,,,,,,,,,,,,,,,,/muse/elements/blink
2023-09-08 13:15:15.752,,,,,,,,,,,,,,,,,,,,,,,,,,,,,,,,,,,,,,/muse/elements/blink
2023-09-08 13:15:16.101,,,,,,,,,,,,,,,,,,,,,,,,,,,,,,,,,,,,,,/muse/elements/blink
2023-09-08 13:15:16.277,,,,,,,,,,,,,,,,,,,,,,,,,,,,,,,,,,,,,,/muse/elements/blink
2023-09-08 13:15:16.551,0.3894816058266424,0.4483064086379037,0.565695781308432,0.5179555076639307,0.1657129797595789,0.1541309492002934,0.25851033186466,0.6251295579588279,0.6628484476758348,0.5055403191534225,0.2408011533417343,0.4233608246583954,0.9365639440807757,-0.07266301435136965,-0.1162133802615811,0.6409554876730634,0.82350739228203,-0.3849417616656503,-0.4036894565115401,0.3133957384487179,1608.095238095238,811.5018315018315,778.8644688644689,951.3186813186813,1113.296703296703,-0.308960,0.082703,0.926392,5.420685,-1.323395,-1.368256,1,1,1,1,1,100.000000
2023-09-08 13:15:16.562,,,,,,,,,,,,,,,,,,,,,,,,,,,,,,,,,,,,,,/muse/elements/blink
2023-09-08 13:15:17.495,,,,,,,,,,,,,,,,,,,,,,,,,,,,,,,,,,,,,,/muse/elements/blink
2023-09-08 13:15:17.552,0.3894816058266424,0.1639993965915904,0.498749862630866,0.6668410277365817,0.1657129797595789,0.1192461644842398,0.08364256768535019,0.7993233861613056,0.6628484476758348,0.5404859361686457,0.1978459845452704,0.4629296604181876,0.9365639440807757,0.006082335088821982,-0.218515593385362,0.6548941553858248,0.82350739228203,-0.3964744155473531,-0.5795581125706806,0.3480188219364079,1381.245421245421,801.4285714285714,786.9230769230769,940.0366300366301,1023.443223443223,-0.335083,0.097961,0.930298,10.744171,-3.798218,-16.075134,1,1,1,1,1,100.000000
2023-09-08 13:15:17.778,,,,,,,,,,,,,,,,,,,,,,,,,,,,,,,,,,,,,,/muse/elements/blink
2023-09-08 13:15:18.279,,,,,,,,,,,,,,,,,,,,,,,,,,,,,,,,,,,,,,/muse/elements/blink
2023-09-08 13:15:18.543,0.3894816058266424,0.611515783921636,0.387286448143503,0.7499590760878245,0.1657129797595789,0.2415103192583465,-0.01295740384261297,0.9300927189743875,0.6628484476758348,0.3878325694906967,0.1580683071207969,0.831487048842006,0.9365639440807757,-0.11950566063672,-0.1632951815635149,0.3884690538101142,0.82350739228203,-0.5336219804819015,-0.4671308149384232,0.212183342201566,1322.014652014652,790.952380952381,789.3406593406594,929.96336996337,1055.274725274725,-0.331726,0.060791,0.945068,0.500946,-8.239441,11.858215,1,1,1,1,1,100.000000
2023-09-08 13:15:19.543,0.570971947109095,0.4824296806473798,0.3411015132853969,0.4370854208195195,0.8705972947287719,0.1203478255423102,-0.03485159248542862,0.5889953010894267,1.053028429328311,0.2886082622322249,0.1000255808686808,0.6778017408825704,1.009861956066444,-0.2885474949161338,-0.1427198775581453,0.3235041855400677,1.056740105995001,-0.3247317320280531,-0.5370525108304217,0.1878027351482992,1588.754578754579,799.0109890109891,794.5787545787546,996.0439560439561,1063.333333333333,-0.309937,0.083069,0.929321,0.201874,-3.334656,-0.575714,1,1,1,1,1,100.000000
2023-09-08 13:15:20.551,0.4174879951395253,-0.08782824128347397,-0.2461958140598301,0.2012653264383978,0.5763930209524989,-0.1820574033651562,-0.3457404583121321,0.0626196514893954,0.9440731537712961,0.2654483527499817,-0.5152642569100319,0.7283475376762745,0.9632060145583651,-0.1937014706942376,-0.1803597995388887,0.4152880958128629,0.931638829998528,-0.3410709409057872,-0.5376168922406684,0.01070621902522254,1423.150183150183,795.3846153846154,794.5787545787546,954.5421245421246,985.5677655677656,-0.306519,0.058472,0.912598,0.568237,-8.448792,-4.800110,1,1,1,1,1,100.000000
2023-09-08 13:15:20.824,,,,,,,,,,,,,,,,,,,,,,,,,,,,,,,,,,,,,,/muse/elements/blink
2023-09-08 13:15:21.064,,,,,,,,,,,,,,,,,,,,,,,,,,,,,,,,,,,,,,/muse/elements/blink
2023-09-08 13:15:21.262,,,,,,,,,,,,,,,,,,,,,,,,,,,,,,,,,,,,,,/muse/elements/blink
2023-09-08 13:15:21.542,0.2228876941603513,0.2382070448449785,-0.4618041580883901,0.3400450832498341,0.3209669787692375,-0.1345666010967617,-0.1070473519625749,-0.2210457905640393,0.8453904224365498,0.2676094883953727,0.1770053434130008,0.5660367546058686,0.9376891397038142,-0.04464157113016465,-0.177976206022613,0.5752296735976536,0.8876355434791968,-0.399264237764384,-0.5221893600268406,-0.09018522812849798,1473.113553113553,787.7289377289378,787.3260073260074,957.3626373626374,806.6666666666667,-0.301758,0.065186,0.940491,0.478516,-1.218719,-1.338348,1,1,1,1,1,100.000000
2023-09-08 13:15:22.182,,,,,,,,,,,,,,,,,,,,,,,,,,,,,,,,,,,,,,/muse/elements/blink
2023-09-08 13:15:22.467,,,,,,,,,,,,,,,,,,,,,,,,,,,,,,,,,,,,,,/muse/elements/blink
2023-09-08 13:15:22.543,0.2228876941603513,-0.0261817355009426,-0.4088630647051387,-0.103653869899616,0.3209669787692375,-0.1341360717986795,-0.2643748601716571,0.232424093316673,0.8453904224365498,0.1994848188716337,0.1826300813956024,0.4048731428236265,0.9376891397038142,-0.112381188354138,-0.2111519765233879,0.4166080618298464,0.8876355434791968,-0.4832699337637317,-0.5292963177432909,0.4172747197949969,1547.252747252747,794.1758241758242,788.1318681318681,971.0622710622711,993.6263736263736,-0.295532,0.058838,0.951599,1.248627,-4.830017,1.218719,1,1,1,1,1,100.000000
2023-09-08 13:15:22.881,,,,,,,,,,,,,,,,,,,,,,,,,,,,,,,,,,,,,,/muse/elements/blink
2023-09-08 13:15:23.166,,,,,,,,,,,,,,,,,,,,,,,,,,,,,,,,,,,,,,/muse/elements/blink
2023-09-08 13:15:23.405,,,,,,,,,,,,,,,,,,,,,,,,,,,,,,,,,,,,,,/muse/elements/blink
2023-09-08 13:15:23.547,0.2228876941603513,-0.5620583265170165,-0.376151395029325,0.2740708609779598,0.3209669787692375,-0.5638862672935601,-0.2198247273097201,0.212050320896958,0.8453904224365498,-0.2536205442361044,0.1999566463165537,0.5342871370657396,0.9376891397038142,-0.09808210336242261,-0.2639705952537814,0.4220985381887528,0.8876355434791968,-0.6194862396473693,-0.6419213805140216,0.2116882965380679,1116.520146520146,790.952380952381,785.3113553113553,867.5091575091575,853.8095238095239,-0.219604,0.090576,0.942871,-1.084137,-5.510406,-4.687958,1,1,1,1,1,100.000000
2023-09-08 13:15:23.779,,,,,,,,,,,,,,,,,,,,,,,,,,,,,,,,,,,,,,/muse/elements/blink
2023-09-08 13:15:24.214,,,,,,,,,,,,,,,,,,,,,,,,,,,,,,,,,,,,,,/muse/elements/blink
2023-09-08 13:15:24.370,,,,,,,,,,,,,,,,,,,,,,,,,,,,,,,,,,,,,,/muse/elements/blink
2023-09-08 13:15:24.542,0.2228876941603513,0.1272353816764853,0.01258260687956509,0.7176072301151938,0.3209669787692375,0.00928467826579314,-0.1010595129647903,0.4300515956866658,0.8453904224365498,0.2253631669519395,0.2510294253825721,0.906226892008734,0.9376891397038142,-0.0602551645577156,-0.2228759459046403,0.4900577456351399,0.8876355434791968,-0.5706412624173636,-0.6261836172121018,0.1635732989972064,1225.714285714286,792.967032967033,788.1318681318681,907.3992673992674,923.919413919414,-0.238342,0.049133,0.962036,-0.777588,-5.981445,-2.265472,1,1,1,1,1,100.000000
2023-09-08 13:15:25.309,,,,,,,,,,,,,,,,,,,,,,,,,,,,,,,,,,,,,,/muse/elements/blink
2023-09-08 13:15:25.543,0.2228876941603513,0.5598608168622097,0.3655889087524,1.006561377036795,0.3209669787692375,0.3175257298299003,0.145929527313208,1.034740109605858,0.8453904224365498,0.3676946585885891,0.06524565099175918,1.063082441818488,0.9376891397038142,-0.0609874959596919,0.01213575741599445,0.6271358490574092,0.8876355434791968,-0.4014655661103358,-0.5238249316884691,0.3041755315303551,1340.549450549451,790.1465201465202,790.5494505494506,942.4542124542124,902.967032967033,-0.260742,0.057678,0.941833,1.772003,-3.992615,-0.007477,1,1,1,1,1,100.000000
2023-09-08 13:15:25.594,,,,,,,,,,,,,,,,,,,,,,,,,,,,,,,,,,,,,,/muse/elements/blink
2023-09-08 13:15:26.118,,,,,,,,,,,,,,,,,,,,,,,,,,,,,,,,,,,,,,/muse/elements/blink
2023-09-08 13:15:26.446,,,,,,,,,,,,,,,,,,,,,,,,,,,,,,,,,,,,,,/muse/elements/blink
2023-09-08 13:15:26.544,0.593244247540033,0.146114099979313,-0.1945998536096335,0.859788286104612,0.9275464539664464,-0.04705660510063794,-0.250306785844546,0.8829102674363493,0.9798963576872126,0.3402321913682402,0.1463106810054622,1.030455830041455,0.8124450113797828,-0.2040799561950255,-0.03043923602103146,0.5615157969311528,0.8386731191182148,-0.2676019780796668,-0.4743413011014144,0.150048906472286,844.1391941391942,791.7582417582418,791.7582417582418,807.4725274725275,595.1282051282052,-0.276428,0.072754,0.951721,2.714081,-3.087921,-0.680389,1,1,1,1,1,100.000000
2023-09-08 13:15:27.524,,,,,,,,,,,,,,,,,,,,,,,,,,,,,,,,,,,,,,/muse/elements/blink
2023-09-08 13:15:27.543,0.7316619146541811,0.283940437934165,-0.2700698039624783,1.164175591293472,0.9288385123738295,0.06913401826232123,-0.2265019204450051,0.9995568855673471,1.046841265677927,0.3332833010766194,0.1965091937783352,1.132025125254824,0.8608661900539405,-0.2656863060988484,-0.1449515474083356,0.6047023044081139,0.7985531489251342,-0.472099930248824,-0.5908451725903936,0.09871657435773294,1047.619047619048,791.3553113553114,793.7728937728938,854.6153846153846,735.3479853479854,-0.284302,0.074219,0.941040,3.140259,-2.706604,-2.721558,1,1,1,1,1,100.000000
2023-09-08 13:15:27.765,,,,,,,,,,,,,,,,,,,,,,,,,,,,,,,,,,,,,,/muse/elements/blink
2023-09-08 13:15:28.542,0.8332640113851824,-0.2751225784159054,-0.2650328685786341,0.6190855396098733,0.9762880291694546,-0.2242385314847343,-0.1503879898136019,0.611113807908003,0.984195648707477,-0.05464567274963564,-0.04050219177897238,0.7395186541978996,0.8725250450896076,-0.2055179181328773,-0.3518521545919551,0.6311501894238616,0.7986709218851064,-0.381463038173093,-0.6403326259317142,0.2552669281544832,1209.194139194139,794.5787545787546,786.1172161172161,902.1611721611722,873.956043956044,-0.304626,0.075439,0.945068,1.816864,-2.272949,-1.562653,1,1,1,1,1,100.000000
2023-09-08 13:15:28.988,,,,,,,,,,,,,,,,,,,,,,,,,,,,,,,,,,,,,,/muse/elements/blink
2023-09-08 13:15:29.362,,,,,,,,,,,,,,,,,,,,,,,,,,,,,,,,,,,,,,/muse/elements/blink
2023-09-08 13:15:29.552,-0.04097441318480995,-0.08787976689780105,-0.2856039570888623,0.2737496570320169,0.1332381794196468,-0.2319688738923874,0.01087946142724225,0.4240262561926167,0.8519697293203844,-0.09008958041008533,0.3065597809066997,0.5614797594277025,0.8219332838876567,-0.2465982989416831,-0.2850979294024448,0.5054712388442391,0.8027639097215031,-0.4872710159165117,-0.4519562431786098,0.217596183450633,626.5567765567765,784.9084249084249,782.4908424908425,732.9304029304029,686.996336996337,-0.270081,0.070312,0.935913,1.420593,0.014954,-5.839386,1,1,1,1,1,100.000000
2023-09-08 13:15:30.109,,,,,,,,,,,,,,,,,,,,,,,,,,,,,,,,,,,,,,/muse/elements/blink
2023-09-08 13:15:30.286,,,,,,,,,,,,,,,,,,,,,,,,,,,,,,,,,,,,,,/muse/elements/blink
2023-09-08 13:15:30.542,-0.2260535309098948,0.7654936158863863,0.243415676707514,0.5154833413897819,-0.2000760898195236,0.4851143429909752,0.0560125403457072,0.6837968054541496,0.2200210567769734,0.5244362424996974,0.3726964211670775,0.7388089410492719,0.7126297472256171,-0.2096140343927543,-0.2556598918002143,0.5388287412827736,0.7576675092240642,-0.4822077012072576,-0.5911584143728724,0.1955559015886968,864.6886446886447,788.1318681318681,788.5347985347986,794.5787545787546,788.1318681318681,-0.274292,0.063171,0.957581,-1.734619,-4.957123,2.893524,1,1,1,1,1,100.000000
2023-09-08 13:15:30.901,,,,,,,,,,,,,,,,,,,,,,,,,,,,,,,,,,,,,,/muse/elements/blink
2023-09-08 13:15:31.542,-0.2260535309098948,0.5831569599847868,-0.03405645613862721,0.4579669171565792,-0.2000760898195236,0.4025258384791538,-0.1620640890628027,0.6251486530754153,0.2200210567769734,0.4815093304480078,-0.1036911417480444,0.692016363852372,0.7126297472256171,-0.215580181924008,-0.2196012060866879,0.4313508540198162,0.7576675092240642,-0.5455303945875125,-0.7569975638481854,0.1941274022472641,1115.311355311355,803.040293040293,782.0879120879121,875.1648351648352,970.6593406593407,-0.288635,0.050476,0.941772,0.777588,-9.712372,-0.598145,1,1,1,1,1,100.000000
2023-09-08 13:15:32.029,,,,,,,,,,,,,,,,,,,,,,,,,,,,,,,,,,,,,,/muse/elements/blink
2023-09-08 13:15:32.206,,,,,,,,,,,,,,,,,,,,,,,,,,,,,,,,,,,,,,/muse/elements/blink
2023-09-08 13:15:32.536,,,,,,,,,,,,,,,,,,,,,,,,,,,,,,,,,,,,,,/muse/elements/blink
2023-09-08 13:15:32.550,-0.2260535309098948,0.08275942160494444,-0.07484624818803753,0.3208161293059087,-0.2000760898195236,0.002599338641202593,-0.07768818362648221,0.2846898983471371,0.2200210567769734,0.2127258086881735,-0.1336711656735393,0.5754391138680018,0.7126297472256171,-0.2409895229555807,-0.1402457732596758,0.3638022623869935,0.7576675092240642,-0.4455894217684545,-0.6253447484591808,0.3240150795626198,502.8571428571429,788.9377289377289,785.3113553113553,711.978021978022,589.4871794871796,-0.308411,0.068726,0.959656,-1.958923,-2.721558,-2.287903,1,1,1,1,1,100.000000
2023-09-08 13:15:33.241,,,,,,,,,,,,,,,,,,,,,,,,,,,,,,,,,,,,,,/muse/elements/blink
2023-09-08 13:15:33.542,-0.2260535309098948,-0.2430470438205826,0.009171992748488195,0.399606385492738,-0.2000760898195236,-0.01347665733682381,-0.01372725450833543,0.3686144741231089,0.2200210567769734,0.1993014295980319,0.03768923250319066,0.4125995464411635,0.7126297472256171,-0.06479759207255166,-0.1189923294587084,0.4153825413979602,0.7576675092240642,-0.4611289582666114,-0.408159783549891,0.4457250015920953,733.7362637362637,788.9377289377289,786.1172161172161,764.3589743589744,570.1465201465202,-0.301208,0.077087,0.933533,-0.029907,-0.000000,-2.564545,1,1,1,1,1,100.000000
2023-09-08 13:15:34.553,-0.2260535309098948,0.004924450477967517,-0.1183947559525359,0.7466951613921525,-0.2000760898195236,-0.08597421757334489,-0.0205939144744764,0.7087829938979539,0.2200210567769734,-0.07382250084589245,0.08798821890236559,0.5287322053566909,0.7126297472256171,-0.06731509344328468,-0.2030173901589085,0.7018901254934842,0.7576675092240642,-0.4272671546658993,-0.4646296080346258,0.3518407378800028,1047.619047619048,793.7728937728938,788.9377289377289,856.2271062271062,759.1208791208792,-0.310852,0.053284,0.930542,6.205750,-4.755249,-9.480591,1,1,1,1,1,100.000000
2023-09-08 13:15:35.071,,,,,,,,,,,,,,,,,,,,,,,,,,,,,,,,,,,,,,/muse/elements/blink
2023-09-08 13:15:35.548,-0.2260535309098948,0.5466832521733967,0.2268521191781274,0.6254443723485867,-0.2000760898195236,0.06905837294029893,-0.1097742590867093,0.6883239693358366,0.2200210567769734,0.2514829565260822,0.1320677584380517,0.4665707680984275,0.7126297472256171,-0.1103627614031474,-0.187850332432433,0.7273843285782174,0.7576675092240642,-0.5733752142752595,-0.5390009866909244,0.4243202419265971,427.1062271062271,778.8644688644689,784.1025641025641,687.8021978021978,781.2820512820513,-0.285156,0.068604,0.928284,-3.454285,-6.445007,-5.166473,1,1,1,1,1,100.000000
2023-09-08 13:15:35.690,,,,,,,,,,,,,,,,,,,,,,,,,,,,,,,,,,,,,,/muse/elements/blink
2023-09-08 13:15:36.067,,,,,,,,,,,,,,,,,,,,,,,,,,,,,,,,,,,,,,/muse/elements/blink
2023-09-08 13:15:36.542,-0.2260535309098948,0.3456348659475758,-0.1260300879804268,0.6620059769349022,-0.2000760898195236,0.1597363183191608,-0.05576138990922466,0.853734694532844,0.2200210567769734,0.2659395717237247,0.1748112775907785,-0.1063195322939073,0.7126297472256171,-0.1202081811275641,-0.223858003065867,0.466339075389915,0.7576675092240642,-0.438422773985346,-0.6057058397297911,0.4495477768179065,701.9047619047619,786.1172161172161,783.6996336996338,755.4945054945055,601.978021978022,-0.307190,0.058777,0.950562,-0.366364,-4.366455,-1.143951,1,1,1,1,1,100.000000
2023-09-08 13:15:36.663,,,,,,,,,,,,,,,,,,,,,,,,,,,,,,,,,,,,,,/muse/elements/blink
2023-09-08 13:15:37.278,,,,,,,,,,,,,,,,,,,,,,,,,,,,,,,,,,,,,,/muse/elements/blink
2023-09-08 13:15:37.542,-0.2260535309098948,0.5332549129934183,0.2166000587698795,0.5553454586236801,-0.2000760898195236,0.2109212100913153,0.03593990931325175,0.7671648696465448,0.2200210567769734,0.4441593409125014,0.2174045523203652,1.167289862762622,0.7126297472256171,-0.1368281898386257,-0.1370399227835729,0.4913547943234461,0.7576675092240642,-0.3283104236223714,-0.4754793559387712,0.2617587452740121,1034.725274725275,793.7728937728938,792.1611721611722,851.3919413919414,794.1758241758242,-0.327881,0.125305,0.909851,4.882355,-6.579590,0.515900,1,1,1,1,1,100.000000
2023-09-08 13:15:37.699,,,,,,,,,,,,,,,,,,,,,,,,,,,,,,,,,,,,,,/muse/elements/blink
2023-09-08 13:15:37.875,,,,,,,,,,,,,,,,,,,,,,,,,,,,,,,,,,,,,,/muse/elements/blink
2023-09-08 13:15:38.315,,,,,,,,,,,,,,,,,,,,,,,,,,,,,,,,,,,,,,/muse/elements/blink
2023-09-08 13:15:38.545,0.6390332811838789,0.8199055645604842,0.5260369086183232,0.4140372191688325,0.8718017330387144,0.4531406439093098,0.2245521254725737,0.7263173612907717,1.03850521267094,0.5263002386932834,0.1420280806068069,1.17231225046813,0.9706640148267718,-0.1383851818703152,-0.1057184020782288,0.4095319015170681,0.9727653354061984,-0.4641109504044184,-0.4181094515675426,0.2087670391038274,409.7802197802198,784.1025641025641,786.9230769230769,678.9377289377289,556.0439560439561,-0.297974,0.105957,0.945374,2.564545,-7.140350,-6.093597,1,1,1,1,1,100.000000
2023-09-08 13:15:38.645,,,,,,,,,,,,,,,,,,,,,,,,,,,,,,,,,,,,,,/muse/elements/blink
2023-09-08 13:15:39.542,0.1463140197536363,0.7814447479263454,0.5075105188053081,0.2432932147592241,1.029609252490361,0.4110828938042034,0.1124169224905844,0.3108580405180402,0.8687638163432069,0.278662426956948,-0.2071604865763763,0.4767180963886937,0.8869688275603886,-0.06317574299650086,-0.07823329272268296,0.5589898010091705,1.056960425002004,-0.524763322978824,-0.5312926666760664,0.3893867196554344,1218.058608058608,797.3992673992674,786.9230769230769,900.1465201465202,871.1355311355312,-0.313599,0.095032,0.937622,1.727142,-4.994507,1.009369,1,1,1,1,1,100.000000
2023-09-08 13:15:40.321,,,,,,,,,,,,,,,,,,,,,,,,,,,,,,,,,,,,,,/muse/elements/blink
2023-09-08 13:15:40.542,0.1463140197536363,0.5940513818375883,0.3638031693320364,0.3908499119040542,1.029609252490361,0.262023071685913,-0.1080214987462495,0.4818711068930284,0.8687638163432069,0.2534120330359638,-0.1627648136748079,0.5959768840563807,0.8869688275603886,0.005944882990687439,-0.0322029436046069,0.6733425041635971,1.056960425002004,-0.4948748053172504,-0.4403099545295273,0.4879299860209816,1459.81684981685,796.996336996337,788.9377289377289,962.1978021978023,998.0586080586081,-0.344055,0.058716,0.915588,5.996399,1.958923,-5.016937,1,1,1,1,1,100.000000
2023-09-08 13:15:41.071,,,,,,,,,,,,,,,,,,,,,,,,,,,,,,,,,,,,,,/muse/elements/blink
2023-09-08 13:15:41.071,,,,,,,,,,,,,,,,,,,,,,,,,,,,,,,,,,,,,,/muse/elements/jaw_clench
2023-09-08 13:15:41.542,0.1463140197536363,0.5795672360489234,0.09949056320033176,0.5952381547986181,1.029609252490361,0.2843152742982262,0.181192740230155,0.3086413985081396,0.8687638163432069,0.6602182148567534,0.4380558886232512,0.4788770156642562,0.8869688275603886,0.2254007728499858,-0.08807376216641805,0.510196618871797,1.056960425002004,-0.2313083344503111,-0.3630002588689449,0.1589589634058918,1616.556776556777,800.6227106227107,788.1318681318681,987.1794871794872,1145.128205128205,-0.340820,0.090881,0.920593,2.594452,-1.981354,0.456085,1,1,1,1,1,100.000000
2023-09-08 13:15:41.774,,,,,,,,,,,,,,,,,,,,,,,,,,,,,,,,,,,,,,/muse/elements/blink
2023-09-08 13:15:41.971,,,,,,,,,,,,,,,,,,,,,,,,,,,,,,,,,,,,,,/muse/elements/blink
2023-09-08 13:15:42.552,0.1463140197536363,0.5901243535000646,0.1775083359008264,-0.4208150018680338,1.029609252490361,0.2923538560645719,0.2668620225078586,0.4017269302171641,0.8687638163432069,0.6606963007460909,0.4558358463903736,0.2478219829977851,0.8869688275603886,0.2555914160048076,-0.05601471325317122,0.4467831263956465,1.056960425002004,-0.05040634714324468,-0.354861479442982,0.3144177653185716,1265.604395604396,791.7582417582418,783.2967032967033,887.2527472527473,855.0183150183151,-0.330750,0.080444,0.929199,0.844879,-3.155212,-0.702820,1,1,1,1,1,100.000000
2023-09-08 13:15:42.586,,,,,,,,,,,,,,,,,,,,,,,,,,,,,,,,,,,,,,/muse/elements/blink
2023-09-08 13:15:42.761,,,,,,,,,,,,,,,,,,,,,,,,,,,,,,,,,,,,,,/muse/elements/blink
2023-09-08 13:15:43.174,,,,,,,,,,,,,,,,,,,,,,,,,,,,,,,,,,,,,,/muse/elements/blink
2023-09-08 13:15:43.352,,,,,,,,,,,,,,,,,,,,,,,,,,,,,,,,,,,,,,/muse/elements/blink
2023-09-08 13:15:43.542,0.1463140197536363,-0.2325326788893889,-0.04641206390540793,0.5548987435924383,1.029609252490361,-0.2390417347210911,-0.3884406995010871,0.4452409302528444,0.8687638163432069,0.06397869351530223,-0.08616095534317177,0.5497733326605271,0.8869688275603886,-0.09192734215016857,0.1051767832569693,0.4874948034197832,1.056960425002004,-0.4654168098147297,-0.3794730110970345,0.2306708180310938,1421.941391941392,790.952380952381,789.3406593406594,940.8424908424909,1037.545787545788,-0.306152,0.089294,0.941895,2.100983,-6.519775,-1.614990,1,1,1,1,1,100.000000
2023-09-08 13:15:43.967,,,,,,,,,,,,,,,,,,,,,,,,,,,,,,,,,,,,,,/muse/elements/blink
2023-09-08 13:15:44.210,,,,,,,,,,,,,,,,,,,,,,,,,,,,,,,,,,,,,,/muse/elements/blink
2023-09-08 13:15:44.548,0.1463140197536363,-0.02856622847672602,-0.2578393790482759,0.6424207911985209,1.029609252490361,-0.3953776142489838,-0.5612457103324811,0.2839144622803564,0.8687638163432069,0.1694526312469528,-0.05950414318024266,0.3497011301220901,0.8869688275603886,-0.07753087394501398,-0.02180176150293572,0.4851258217357604,1.056960425002004,-0.4551862403003805,-0.3670836871924305,0.08305149962867381,937.2161172161173,786.5201465201466,785.7142857142858,824.7985347985348,732.1245421245421,-0.294861,0.057556,0.943726,2.347717,-2.093506,-8.336639,1,1,1,1,1,100.000000
2023-09-08 13:15:45.109,,,,,,,,,,,,,,,,,,,,,,,,,,,,,,,,,,,,,,/muse/elements/blink
2023-09-08 13:15:45.526,,,,,,,,,,,,,,,,,,,,,,,,,,,,,,,,,,,,,,/muse/elements/blink
2023-09-08 13:15:45.542,0.1463140197536363,0.3312012284688803,-0.5366937724954277,0.04936020255378581,1.029609252490361,0.1077455430717533,-0.4326956498315241,0.504848283849635,0.8687638163432069,-0.04409093704873794,-0.03816969381917632,0.2942884146275773,0.8869688275603886,0.02576844548707477,-0.2613773327121204,0.3860964893034124,1.056960425002004,0.01002978249328684,-0.4585889394994451,0.03804598795586549,1132.234432234432,799.4139194139194,789.7435897435897,877.1794871794872,846.959706959707,-0.327209,0.034729,0.943665,-3.484192,-9.974060,-1.921539,1,1,1,1,1,100.000000
2023-09-08 13:15:45.721,,,,,,,,,,,,,,,,,,,,,,,,,,,,,,,,,,,,,,/muse/elements/blink
2023-09-08 13:15:46.028,,,,,,,,,,,,,,,,,,,,,,,,,,,,,,,,,,,,,,/muse/elements/blink
2023-09-08 13:15:46.315,,,,,,,,,,,,,,,,,,,,,,,,,,,,,,,,,,,,,,/muse/elements/blink
2023-09-08 13:15:46.542,0.4485337423058568,-0.08081576410238014,-0.5584533045835268,0.2754080772824793,0.3038668807742895,-0.09703358119823387,-0.4059350895544818,0.3355295343450637,0.3014761269834447,-0.04645585082194368,-0.1417045479650549,0.4248131225607468,0.696662449272033,0.2408482313655126,-0.08816368914971705,0.429058926018018,0.6482874591585954,0.4356757915290692,-0.3633430860425102,0.02994020231518251,1146.739926739927,794.1758241758242,795.3846153846154,933.1868131868132,906.996336996337,0.018555,0.043091,0.993347,2.586975,-6.706696,0.201874,1,1,1,1,1,100.000000
2023-09-08 13:15:46.640,,,,,,,,,,,,,,,,,,,,,,,,,,,,,,,,,,,,,,/muse/elements/blink
2023-09-08 13:15:47.344,,,,,,,,,,,,,,,,,,,,,,,,,,,,,,,,,,,,,,/muse/elements/blink
2023-09-08 13:15:47.553,0.4485337423058568,0.679307668174956,0.235872027888441,0.4038380490522251,0.3038668807742895,0.09932059683924906,-0.09397308226752614,0.4593078440963654,0.3014761269834447,0.3502387357350654,-0.09142743148865717,0.3365760114501584,0.696662449272033,0.1571658015277216,-0.02948123049191096,0.430105004122755,0.6482874591585954,0.1913948481854233,-0.3561951584925508,0.05908695779504108,830.0366300366301,790.952380952381,790.1465201465202,793.7728937728938,682.1611721611722,-0.017090,0.046875,0.979980,4.201965,-9.607697,1.099091,1,1,1,1,1,100.000000
2023-09-08 13:15:47.628,,,,,,,,,,,,,,,,,,,,,,,,,,,,,,,,,,,,,,/muse/elements/blink
2023-09-08 13:15:48.044,,,,,,,,,,,,,,,,,,,,,,,,,,,,,,,,,,,,,,/muse/elements/blink
2023-09-08 13:15:48.044,,,,,,,,,,,,,,,,,,,,,,,,,,,,,,,,,,,,,,/muse/elements/jaw_clench
2023-09-08 13:15:48.243,,,,,,,,,,,,,,,,,,,,,,,,,,,,,,,,,,,,,,/muse/elements/jaw_clench
2023-09-08 13:15:48.484,,,,,,,,,,,,,,,,,,,,,,,,,,,,,,,,,,,,,,/muse/elements/blink
2023-09-08 13:15:48.542,1.195897508895247,0.846377598117475,0.4266714882402937,0.9191518262879355,0.5649501334778726,0.09309761689418718,-0.01031858887378252,0.5977809675312319,1.073614470196662,0.4541031118111575,-0.05946693122851323,0.8564605028539062,0.5802143452042587,0.02855582973425218,-0.02449229730328087,0.465491549013721,0.6345853597400167,-0.1198174365866789,-0.3746375138037678,0.596411088221769,985.1648351648352,793.7728937728938,781.2820512820513,850.5860805860806,770.4029304029305,-0.007385,0.042847,0.978699,3.065491,-4.859924,-1.428070,1,1,1,1,1,100.000000
2023-09-08 13:15:48.660,,,,,,,,,,,,,,,,,,,,,,,,,,,,,,,,,,,,,,/muse/elements/blink
2023-09-08 13:15:49.186,,,,,,,,,,,,,,,,,,,,,,,,,,,,,,,,,,,,,,/muse/elements/blink
2023-09-08 13:15:49.547,0.6341742493010508,0.220038450429298,0.07154286375125286,0.6560635901183925,0.5289378155886848,-0.1034796894970725,-0.3888266962916291,0.5398328363449592,0.9332884120392801,0.3010094440278773,-0.02430700103664101,0.7015305650418917,0.6502781666939021,0.1272030176650804,-0.05916325972231316,0.4548901650567443,0.4806170444290477,-0.1046843607279194,-0.3726179334133598,0.6536174310569431,1142.307692307692,790.1465201465202,801.025641025641,928.3516483516484,977.5091575091575,-0.110046,0.061890,0.977539,1.024323,25.652924,-1.801910,1,1,1,1,1,100.000000
2023-09-08 13:15:49.625,,,,,,,,,,,,,,,,,,,,,,,,,,,,,,,,,,,,,,/muse/elements/blink
2023-09-08 13:15:50.104,,,,,,,,,,,,,,,,,,,,,,,,,,,,,,,,,,,,,,/muse/elements/blink
2023-09-08 13:15:50.542,0.4699865368679126,0.6808918419398915,-0.01610578664000887,0.5698209933008745,0.456465614012646,0.420981711055099,-0.08563428247691544,0.5488692502107326,0.6901203609072156,0.3789847950219444,0.1644294238666566,0.5318727489424458,0.6858107872722227,0.01726587770057298,-0.08295223280064376,0.5074383417540999,0.3583269012027636,-0.3503677327095012,-0.1559839877473999,0.6983092678393997,796.1904761904763,780.0732600732601,791.3553113553114,798.2051282051282,800.2197802197802,-0.410156,0.079895,0.891113,-0.590668,8.755341,5.024414,1,1,1,1,1,100.000000
2023-09-08 13:15:50.565,,,,,,,,,,,,,,,,,,,,,,,,,,,,,,,,,,,,,,/muse/elements/blink
2023-09-08 13:15:50.915,,,,,,,,,,,,,,,,,,,,,,,,,,,,,,,,,,,,,,/muse/elements/blink
2023-09-08 13:15:51.091,,,,,,,,,,,,,,,,,,,,,,,,,,,,,,,,,,,,,,/muse/elements/blink
2023-09-08 13:15:51.541,0.4699865368679126,0.5094318717952384,0.5929077500958599,0.5698209933008745,0.456465614012646,0.3406994080082182,0.2335544937193908,0.5488692502107326,0.6901203609072156,0.3473343898484483,0.3202352434256557,0.5318727489424458,0.6858107872722227,-0.09350203621875079,0.09673050514281883,0.5074383417540999,0.3583269012027636,-0.373372029537526,-0.01751758248233651,0.6983092678393997,987.985347985348,783.2967032967033,799.8168498168499,845.3479853479854,749.8534798534798,-0.203735,0.071106,0.972229,-3.686066,-2.878571,14.587250,1,1,1,1,1,100.000000
2023-09-08 13:15:51.701,,,,,,,,,,,,,,,,,,,,,,,,,,,,,,,,,,,,,,/muse/elements/blink
2023-09-08 13:15:52.426,,,,,,,,,,,,,,,,,,,,,,,,,,,,,,,,,,,,,,/muse/elements/blink
2023-09-08 13:15:52.547,0.4699865368679126,0.7798192448314544,0.8004199862183029,0.5698209933008745,0.456465614012646,0.4178369598105071,0.2019153393368774,0.5488692502107326,0.6901203609072156,0.5092809709013446,0.3309197447284898,0.5318727489424458,0.6858107872722227,-0.06021487382785027,0.2410292162643479,0.5074383417540999,0.3583269012027636,-0.4413448232901446,0.07893441438081325,0.6983092678393997,1205.164835164835,781.2820512820513,796.996336996337,913.8461538461539,908.6080586080586,-0.292603,0.096985,0.930176,2.160797,-4.149628,-7.895508,1,2,1,1,2,100.000000
2023-09-08 13:15:53.015,,,,,,,,,,,,,,,,,,,,,,,,,,,,,,,,,,,,,,/muse/elements/blink
2023-09-08 13:15:53.124,,,,,,,,,,,,,,,,,,,,,,,,,,,,,,,,,,,,,,/muse/elements/jaw_clench
2023-09-08 13:15:53.342,,,,,,,,,,,,,,,,,,,,,,,,,,,,,,,,,,,,,,/muse/elements/jaw_clench
2023-09-08 13:15:53.553,0.4699865368679126,0.66814691759515,0.316414926029198,0.5698209933008745,0.456465614012646,0.5308007404373216,-0.262142718964517,0.5488692502107326,0.6901203609072156,0.4724614058746411,0.1731089883204895,0.5318727489424458,0.6858107872722227,-0.0745493812081001,0.0202985444176738,0.5074383417540999,0.3583269012027636,-0.4682317624018453,-0.1521292437844308,0.6983092678393997,929.96336996337,793.3699633699634,791.3553113553114,851.7948717948718,929.5604395604396,-0.270691,0.063965,0.938477,-0.044861,-6.594543,-1.450500,1,2,1,1,2,100.000000
2023-09-08 13:15:53.648,,,,,,,,,,,,,,,,,,,,,,,,,,,,,,,,,,,,,,/muse/elements/blink
2023-09-08 13:15:54.064,,,,,,,,,,,,,,,,,,,,,,,,,,,,,,,,,,,,,,/muse/elements/blink
2023-09-08 13:15:54.331,,,,,,,,,,,,,,,,,,,,,,,,,,,,,,,,,,,,,,/muse/elements/blink
2023-09-08 13:15:54.542,0.4699865368679126,0.1471739165328242,-0.1866448204245218,0.5698209933008745,0.456465614012646,-0.1067089429520078,-0.4425001205825679,0.5488692502107326,0.6901203609072156,0.03927901976437781,0.1539158130233649,0.5318727489424458,0.6858107872722227,-0.1023644663025086,-0.1259990977261037,0.5074383417540999,0.3583269012027636,-0.3958384622867889,-0.6409823486489916,0.6983092678393997,724.0659340659341,782.0879120879121,786.9230769230769,782.0879120879121,877.985347985348,-0.297974,0.033875,0.943420,0.456085,-10.452576,-1.712189,1,2,1,1,2,100.000000
2023-09-08 13:15:54.571,,,,,,,,,,,,,,,,,,,,,,,,,,,,,,,,,,,,,,/muse/elements/blink
2023-09-08 13:15:54.962,,,,,,,,,,,,,,,,,,,,,,,,,,,,,,,,,,,,,,/muse/elements/blink
2023-09-08 13:15:55.376,,,,,,,,,,,,,,,,,,,,,,,,,,,,,,,,,,,,,,/muse/elements/blink
2023-09-08 13:15:55.541,0.7277966930918002,0.7044173175364439,0.4979584919029755,0.5578825078689741,0.6609229656104079,0.3322205839906084,0.07685643603293489,0.3320292513791404,0.6219681632121103,0.2052298845542312,0.3115684358486415,0.7533609781564596,0.6014740410413617,-0.1678901271042074,-0.05191122709018452,0.4135327829169057,0.4271035970249115,-0.4796747983468501,-0.6391787892415358,0.1260495193171204,425.0915750915751,771.2087912087912,809.8901098901099,722.4542124542124,703.5164835164835,-0.369019,0.083862,0.920227,-14.116211,17.383575,23.312683,1,1,1,1,1,100.000000
2023-09-08 13:15:55.727,,,,,,,,,,,,,,,,,,,,,,,,,,,,,,,,,,,,,,/muse/elements/blink
2023-09-08 13:15:56.077,,,,,,,,,,,,,,,,,,,,,,,,,,,,,,,,,,,,,,/muse/elements/blink
2023-09-08 13:15:56.077,,,,,,,,,,,,,,,,,,,,,,,,,,,,,,,,,,,,,,/muse/elements/jaw_clench
2023-09-08 13:15:56.384,,,,,,,,,,,,,,,,,,,,,,,,,,,,,,,,,,,,,,/muse/elements/blink
2023-09-08 13:15:56.546,0.8827007069022912,1.008957678560171,0.9052015662230528,0.6546249052918004,0.78663646530231,0.5978797634823494,0.6108579194901944,0.3516179547398106,0.5553359646226002,0.4203049642302541,0.3610657218102835,0.7262222529326224,0.5713870580750723,0.06442614248867043,0.1853097218540769,0.3805470684194305,0.4400710920676378,0.001088025742246113,0.03128017398879192,0.03035411565291331,948.901098901099,782.0879120879121,780.0732600732601,838.4981684981685,977.1062271062272,-0.331543,0.054810,0.921753,2.781372,-2.190704,-1.271057,1,1,1,1,1,100.000000
2023-09-08 13:15:56.778,,,,,,,,,,,,,,,,,,,,,,,,,,,,,,,,,,,,,,/muse/elements/blink
2023-09-08 13:15:57.544,0.8827007069022912,0.9766385654379851,0.5164736136204746,0.9255560968226069,0.78663646530231,0.6367852852113615,0.4678758052935815,1.108566038996379,0.5553359646226002,0.4360502774115544,0.2411756260516031,0.8055656379389869,0.5713870580750723,-0.06633218206528591,0.09495750995320119,0.6840561891231912,0.4400710920676378,-0.2633306908144815,-0.07154603418752219,0.4849522861622404,669.2673992673992,781.2820512820513,785.3113553113553,791.3553113553114,996.8498168498169,-0.347107,0.051086,0.920044,3.745880,-4.015045,-2.250519,1,1,1,1,1,100.000000
2023-09-08 13:15:57.718,,,,,,,,,,,,,,,,,,,,,,,,,,,,,,,,,,,,,,/muse/elements/blink
2023-09-08 13:15:58.330,,,,,,,,,,,,,,,,,,,,,,,,,,,,,,,,,,,,,,/muse/elements/blink
2023-09-08 13:15:58.506,,,,,,,,,,,,,,,,,,,,,,,,,,,,,,,,,,,,,,/muse/elements/blink
2023-09-08 13:15:58.542,0.8827007069022912,0.7547431197600847,0.5205297482189466,0.6715717897958908,0.78663646530231,0.3362124262854078,0.2689502531905002,0.8961294643475392,0.5553359646226002,0.3881395329446193,0.1105160757989712,0.9177354728464381,0.5713870580750723,0.09411020624284931,-0.09901693768259594,0.5557168488132906,0.4400710920676378,-0.09334502431454406,-0.4497695802110069,0.3700442539961451,509.7069597069597,784.5054945054945,791.7582417582418,732.5274725274726,789.3406593406594,-0.269714,0.069885,0.962402,3.439331,-14.691925,0.246735,1,1,1,1,1,100.000000
2023-09-08 13:15:58.834,,,,,,,,,,,,,,,,,,,,,,,,,,,,,,,,,,,,,,/muse/elements/blink
2023-09-08 13:15:59.031,,,,,,,,,,,,,,,,,,,,,,,,,,,,,,,,,,,,,,/muse/elements/blink
2023-09-08 13:15:59.360,,,,,,,,,,,,,,,,,,,,,,,,,,,,,,,,,,,,,,/muse/elements/blink
2023-09-08 13:15:59.535,,,,,,,,,,,,,,,,,,,,,,,,,,,,,,,,,,,,,,/muse/elements/blink
2023-09-08 13:15:59.535,,,,,,,,,,,,,,,,,,,,,,,,,,,,,,,,,,,,,,/muse/elements/jaw_clench
2023-09-08 13:15:59.546,1.489958931699207,0.7560196320347394,0.8309813133773253,1.190238634101115,1.358792460971117,0.5534902221190015,0.4397467524386636,1.143675935932968,1.475785319352554,0.5593167154856542,0.4686361528011201,1.512062222858365,0.7462368140014769,0.08367386770950401,0.2020939687384853,0.4298335074757157,0.7292565600845988,-0.2350973037643797,0.1383642097522769,0.170267658711935,856.2271062271062,791.3553113553114,782.0879120879121,822.7838827838829,867.1062271062272,-0.475159,0.028748,0.858154,6.729126,5.188904,-17.017212,1,1,1,1,1,100.000000
2023-09-08 13:15:59.756,,,,,,,,,,,,,,,,,,,,,,,,,,,,,,,,,,,,,,/muse/elements/jaw_clench
2023-09-08 13:15:59.824,,,,,,,,,,,,,,,,,,,,,,,,,,,,,,,,,,,,,,/muse/elements/blink
2023-09-08 13:16:00.150,,,,,,,,,,,,,,,,,,,,,,,,,,,,,,,,,,,,,,/muse/elements/jaw_clench
2023-09-08 13:16:00.347,,,,,,,,,,,,,,,,,,,,,,,,,,,,,,,,,,,,,,/muse/elements/jaw_clench
2023-09-08 13:16:00.542,1.634566373008198,0.7162888372475175,0.6830614316135253,1.35921386055693,1.492577945895029,0.3846250038317258,0.4203541459747127,1.301577673386804,1.468297658026098,0.6210171201179194,0.6099484577664211,1.512062222858365,0.768584151893437,0.337602877575416,0.5924759021133309,0.4514277415625572,0.644654184468859,0.288651621052598,0.6045472894421013,0.200641958265942,33.84615384615385,780.0732600732601,784.5054945054945,668.0586080586081,609.2307692307693,-0.452148,0.066467,0.877563,1.644897,-3.244934,0.530853,1,1,1,1,1,100.000000
2023-09-08 13:16:01.541,1.634566373008198,0.5433302197860049,0.460063842678819,0.3259311108889039,1.492577945895029,0.2609493156986028,0.1318979747742945,0.3451860747873673,1.468297658026098,0.5783902648564027,0.4398207083779449,0.6101173003653658,0.768584151893437,0.1256421926637627,0.4683469248381026,0.5836908650830253,0.644654184468859,0.003440998107651193,0.4879449884012343,0.5146892129547689,0,773.6263736263736,784.1025641025641,602.7838827838827,563.2967032967033,-0.374084,0.119324,0.883545,3.469238,1.981354,0.605621,1,4,1,1,1,100.000000
2023-09-08 13:16:01.565,,,,,,,,,,,,,,,,,,,,,,,,,,,,,,,,,,,,,,/muse/elements/blink
2023-09-08 13:16:01.894,,,,,,,,,,,,,,,,,,,,,,,,,,,,,,,,,,,,,,/muse/elements/blink
2023-09-08 13:16:02.523,,,,,,,,,,,,,,,,,,,,,,,,,,,,,,,,,,,,,,/muse/elements/blink
2023-09-08 13:16:02.542,1.634566373008198,0.4065591654331869,0.3829152850440335,0.4690440880359211,1.492577945895029,0.1490401031028745,-0.0334939476408914,0.2963957264898343,1.468297658026098,0.3331018369565898,-0.04679264946593145,0.7303408351056044,0.768584151893437,0.06072923390442191,0.0671696753689546,0.5795752288950993,0.644654184468859,-0.4076200534117505,-0.0535033595920769,0.283800204680564,67.69230769230769,785.7142857142858,790.5494505494506,607.6190476190476,479.8901098901099,-0.384460,0.089783,0.926331,-0.515900,-9.159088,0.994415,1,1,1,1,1,100.000000
2023-09-08 13:16:03.541,1.634566373008198,-0.03609515446659791,-0.2558023194483358,0.5892006371298482,1.492577945895029,-0.3900236413710149,-0.2531427580184086,0.2654974882963457,1.468297658026098,0.136987391138042,-0.2119245542500768,0.6398067339345755,0.768584151893437,-0.08825964811719966,-0.1976724674751165,0.5591313886730156,0.644654184468859,-0.3731362683939597,-0.5625808230477001,0.3205403555503688,108.3882783882784,770.8058608058608,782.0879120879121,603.992673992674,533.4798534798535,-0.400574,0.111206,0.910400,1.383209,4.904785,5.495453,1,1,1,1,1,100.000000
2023-09-08 13:16:03.721,,,,,,,,,,,,,,,,,,,,,,,,,,,,,,,,,,,,,,/muse/elements/blink
2023-09-08 13:16:04.007,,,,,,,,,,,,,,,,,,,,,,,,,,,,,,,,,,,,,,/muse/elements/blink
2023-09-08 13:16:04.248,,,,,,,,,,,,,,,,,,,,,,,,,,,,,,,,,,,,,,/muse/elements/blink
2023-09-08 13:16:04.511,,,,,,,,,,,,,,,,,,,,,,,,,,,,,,,,,,,,,,/muse/elements/blink
2023-09-08 13:16:04.542,1.634566373008198,0.1189034906760048,-0.08810513068318419,0.4227820431229231,1.492577945895029,-0.1004815032457476,-0.2447458886298098,-0.004149929604737919,1.468297658026098,0.2199319668002926,-0.07300078786592877,0.3924428697031007,0.768584151893437,-0.09300714986770382,-0.2156345987480645,0.4163174741428539,0.644654184468859,-0.3633307849483512,-0.4590742200334147,0.327453934982059,122.4908424908425,782.4908424908425,787.7289377289378,616.080586080586,590.2930402930403,-0.321472,0.093872,0.901245,6.370239,-18.101349,-21.338806,1,1,1,1,1,100.000000
2023-09-08 13:16:04.860,,,,,,,,,,,,,,,,,,,,,,,,,,,,,,,,,,,,,,/muse/elements/jaw_clench
2023-09-08 13:16:04.949,,,,,,,,,,,,,,,,,,,,,,,,,,,,,,,,,,,,,,/muse/elements/blink
2023-09-08 13:16:05.322,,,,,,,,,,,,,,,,,,,,,,,,,,,,,,,,,,,,,,/muse/elements/blink
2023-09-08 13:16:05.542,1.634566373008198,0.1034410544208355,0.5548910560345587,0.0770421866252191,1.492577945895029,-0.185209513492151,0.1097689901060274,-0.01133836668540473,1.468297658026098,-0.02075828930505457,0.1872268799919456,0.4864223969482361,0.768584151893437,0.02072406865267752,0.2575586117253511,0.4328086303624818,0.644654184468859,-0.3333997889340176,-0.3161399654172253,0.3401253757433946,297.3626373626374,784.5054945054945,786.9230769230769,650.7326007326008,619.3040293040293,-0.286194,0.062744,0.946350,5.316010,12.897491,3.536530,1,1,1,1,1,100.000000
2023-09-08 13:16:06.063,,,,,,,,,,,,,,,,,,,,,,,,,,,,,,,,,,,,,,/muse/elements/blink
2023-09-08 13:16:06.347,,,,,,,,,,,,,,,,,,,,,,,,,,,,,,,,,,,,,,/muse/elements/blink
2023-09-08 13:16:06.542,1.634566373008198,-0.2479451689364108,0.484800733876596,0.2551243597517488,1.492577945895029,0.0505356375501945,0.1303723176208507,0.1181243311103505,1.468297658026098,0.3787128143006078,0.2271656301700695,0.3364466723897964,0.768584151893437,-0.06807814342840561,0.485066170848192,0.4976501055947795,0.644654184468859,-0.144303629131242,0.1793782320752249,0.3717049299618814,83.80952380952381,779.2673992673992,786.1172161172161,601.5750915750916,373.919413919414,-0.336975,0.066162,0.930420,3.259888,-1.480408,-5.458069,1,1,1,1,1,100.000000
2023-09-08 13:16:06.674,,,,,,,,,,,,,,,,,,,,,,,,,,,,,,,,,,,,,,/muse/elements/blink
2023-09-08 13:16:07.045,,,,,,,,,,,,,,,,,,,,,,,,,,,,,,,,,,,,,,/muse/elements/blink
2023-09-08 13:16:07.371,,,,,,,,,,,,,,,,,,,,,,,,,,,,,,,,,,,,,,/muse/elements/blink
2023-09-08 13:16:07.542,0.4975233550280098,-0.01578773388048047,0.1095193389128633,0.6802518481004552,0.9052487506797805,0.1057385821434031,0.07201858120429598,0.9839481801982927,1.025289451124352,0.3787128143006078,0.2942987937578915,1.137140206823158,0.7993070644253384,-0.05772448730772594,0.2206872453043255,0.5836669526096402,0.7559861844858784,-0.1722405309706194,0.0007753834846555595,0.2656456700673661,116.8498168498168,786.9230769230769,786.1172161172161,623.7362637362637,599.1575091575091,-0.372559,0.127502,0.898865,0.949554,-10.078735,-3.252411,1,1,1,1,1,100.000000
2023-09-08 13:16:07.759,,,,,,,,,,,,,,,,,,,,,,,,,,,,,,,,,,,,,,/muse/elements/blink
2023-09-08 13:16:07.977,,,,,,,,,,,,,,,,,,,,,,,,,,,,,,,,,,,,,,/muse/elements/blink
2023-09-08 13:16:08.174,,,,,,,,,,,,,,,,,,,,,,,,,,,,,,,,,,,,,,/muse/elements/blink
2023-09-08 13:16:08.499,,,,,,,,,,,,,,,,,,,,,,,,,,,,,,,,,,,,,,/muse/elements/blink
2023-09-08 13:16:08.541,0.3488937279139023,0.2535768406182716,-0.004645738013797829,0.4793438354592625,0.9656382873384511,0.159094057478996,-0.04991317921434423,0.6738502125402377,0.8918460534259265,0.2382794619769864,0.2942987937578915,1.10885519718425,0.8991872564575072,-0.1116922281931015,-0.1607733220251178,0.5507336925138637,0.811708063816598,-0.4670251587958736,-0.4801365486012554,0.2143625088207698,246.1904761904762,781.6849816849817,781.2820512820513,646.3003663003664,534.6886446886447,-0.338196,0.154480,0.920654,1.644897,-2.654266,1.166382,1,1,1,1,1,100.000000
2023-09-08 13:16:08.695,,,,,,,,,,,,,,,,,,,,,,,,,,,,,,,,,,,,,,/muse/elements/blink
2023-09-08 13:16:08.870,,,,,,,,,,,,,,,,,,,,,,,,,,,,,,,,,,,,,,/muse/elements/blink
2023-09-08 13:16:09.108,,,,,,,,,,,,,,,,,,,,,,,,,,,,,,,,,,,,,,/muse/elements/blink
2023-09-08 13:16:09.541,0.1918313285248849,0.09454458976006384,-0.2055942963410942,0.752301847692604,0.8635975622895127,0.03272368981177765,-0.2927705085339236,0.3768916336801174,0.8427372074839239,0.2312418713048631,-0.1187731544743102,0.611342997197416,0.8863383183276075,-0.18639524560319,-0.1159847232110639,0.545419967732407,0.8295572235678126,-0.6384819260109165,-0.427845967601873,0.233513769612556,480.2930402930403,783.2967032967033,789.3406593406594,707.5457875457876,738.1684981684982,-0.343384,0.144348,0.932800,4.800110,-4.418793,2.160797,1,1,1,1,1,100.000000
2023-09-08 13:16:09.804,,,,,,,,,,,,,,,,,,,,,,,,,,,,,,,,,,,,,,/muse/elements/blink
2023-09-08 13:16:10.415,,,,,,,,,,,,,,,,,,,,,,,,,,,,,,,,,,,,,,/muse/elements/blink
2023-09-08 13:16:10.541,0.2350408698845516,0.09363579679794796,-0.1404486807118665,0.8898947705148293,0.5691296523849724,-0.2800630824707719,-0.2469476264168462,0.54643608195393,0.7208555940425465,-0.1256648621727079,-0.2047984298663724,0.6691192224434779,0.8573042628734329,-0.1630598076472785,-0.1711101780053652,0.5381714831398678,0.9012825326832519,-0.575054967447732,-0.5984769148455832,0.2508265663931511,205.8974358974359,770.4029304029305,782.4908424908425,609.6336996336996,641.0622710622711,-0.330872,-0.057922,0.895508,1.936493,-8.792725,-8.897400,1,1,1,1,1,100.000000
2023-09-08 13:16:10.610,,,,,,,,,,,,,,,,,,,,,,,,,,,,,,,,,,,,,,/muse/elements/blink
2023-09-08 13:16:11.133,,,,,,,,,,,,,,,,,,,,,,,,,,,,,,,,,,,,,,/muse/elements/blink
2023-09-08 13:16:11.541,0.2824057684915327,0.2331374510269412,-0.1406127353497634,0.6418761031246828,0.4639080923432992,-0.2672792904036657,-0.164586479963211,0.6557923688245747,0.6262514073456125,-0.03946236887742971,0.01216198390302876,0.6178585355462479,0.8085316170421288,-0.2137686390866186,-0.1508882197604713,0.4026672035427557,0.8357364589722648,-0.4514533087774799,-0.5634595064225998,0.2197543214151834,327.1794871794872,785.3113553113553,787.7289377289378,662.4175824175825,479.0842490842491,-0.325012,0.035156,0.937500,5.644989,-1.480408,5.779572,1,1,1,1,1,100.000000
2023-09-08 13:16:11.915,,,,,,,,,,,,,,,,,,,,,,,,,,,,,,,,,,,,,,/muse/elements/blink
2023-09-08 13:16:12.241,,,,,,,,,,,,,,,,,,,,,,,,,,,,,,,,,,,,,,/muse/elements/blink
2023-09-08 13:16:12.541,0.3342155538254634,0.05031578028907032,-0.4191321783972491,0.3659534430651825,0.5968002111528418,-0.1768324792420852,-0.204130438408473,0.6989968687960512,0.6950476718382611,0.06419258378857448,-0.02773706933103367,0.6854571208578005,0.8151714542650323,-0.2547910030496016,-0.2515821728539265,0.5657786836948084,0.7066186173574298,-0.3346826029800884,-0.6522746963215301,0.3100926618254613,523.0036630036631,777.6556776556777,784.1025641025641,710.3663003663004,780.8791208791209,-0.348389,0.080505,0.915894,2.228088,-5.570221,2.153320,1,1,1,1,1,100.000000
2023-09-08 13:16:12.633,,,,,,,,,,,,,,,,,,,,,,,,,,,,,,,,,,,,,,/muse/elements/blink
2023-09-08 13:16:12.853,,,,,,,,,,,,,,,,,,,,,,,,,,,,,,,,,,,,,,/muse/elements/blink
2023-09-08 13:16:13.139,,,,,,,,,,,,,,,,,,,,,,,,,,,,,,,,,,,,,,/muse/elements/blink
2023-09-08 13:16:13.467,,,,,,,,,,,,,,,,,,,,,,,,,,,,,,,,,,,,,,/muse/elements/blink
2023-09-08 13:16:13.541,0.4652166944986543,0.06416951204422731,-0.4576118368246098,0.4944125791219312,0.5307086338765692,-0.2136161677547536,-0.4259867724620364,0.6029384399450176,0.6955107776480378,0.2136926642778466,-0.1473848732839757,0.6366652982797661,0.6404150416526669,-0.1771847952376564,-0.3176276612566029,0.4369764830394158,0.6921020834344453,-0.3022451976416171,-0.6631858002930507,0.240539653340386,184.1391941391941,785.3113553113553,784.9084249084249,617.2893772893773,546.7765567765568,-0.345886,0.088745,0.918579,-0.807495,-1.308441,0.493469,1,1,1,1,1,100.000000
2023-09-08 13:16:14.545,0.5143487484342266,0.2423803083989346,-0.2089354469027791,0.5003011154845373,0.6324261100803198,-0.006891286507047912,-0.4076584785900519,0.392083188017372,0.9848106721383904,0.2251844557001001,-0.2871921064274023,0.7404375264120725,0.9610117092996757,-0.1853322272363796,-0.2963653908089611,0.4735042031862103,0.8294453400643359,-0.4090906041901684,-0.5608423382133286,0.3151646822338614,133.7728937728938,778.0586080586081,786.9230769230769,617.6923076923077,598.3516483516484,-0.347351,0.053284,0.919312,1.540222,1.345825,-3.304749,1,1,1,1,1,100.000000
2023-09-08 13:16:14.689,,,,,,,,,,,,,,,,,,,,,,,,,,,,,,,,,,,,,,/muse/elements/blink
2023-09-08 13:16:14.996,,,,,,,,,,,,,,,,,,,,,,,,,,,,,,,,,,,,,,/muse/elements/blink
2023-09-08 13:16:15.541,0.1543414827501026,-0.167670578008813,-0.1539279976088098,0.2817786385127371,0.3120201644217002,-0.310640575528158,-0.2986871958002256,0.1537598579364137,0.9048126755203004,-0.01845812892983138,-0.1142039133974476,0.6237148593371856,0.9470060783268017,-0.1639301177856128,-0.3186101238725008,0.3948448873589371,0.7908269873664443,-0.5041417543564416,-0.5353914020922265,0.2547147977850509,126.1172161172161,788.1318681318681,794.5787545787546,639.4505494505495,657.1794871794872,-0.366333,0.056396,0.923462,3.723450,-0.605621,0.471039,1,1,1,1,1,100.000000
2023-09-08 13:16:15.676,,,,,,,,,,,,,,,,,,,,,,,,,,,,,,,,,,,,,,/muse/elements/blink
2023-09-08 13:16:15.896,,,,,,,,,,,,,,,,,,,,,,,,,,,,,,,,,,,,,,/muse/elements/blink
2023-09-08 13:16:16.423,,,,,,,,,,,,,,,,,,,,,,,,,,,,,,,,,,,,,,/muse/elements/blink
