TimeStamp,Delta_TP9,Delta_AF7,Delta_AF8,Delta_TP10,Theta_TP9,Theta_AF7,Theta_AF8,Theta_TP10,Alpha_TP9,Alpha_AF7,Alpha_AF8,Alpha_TP10,Beta_TP9,Beta_AF7,Beta_AF8,Beta_TP10,Gamma_TP9,Gamma_AF7,Gamma_AF8,Gamma_TP10,RAW_TP9,RAW_AF7,RAW_AF8,RAW_TP10,AUX_RIGHT,Accelerometer_X,Accelerometer_Y,Accelerometer_Z,Gyro_X,Gyro_Y,Gyro_Z,HeadBandOn,HSI_TP9,HSI_AF7,HSI_AF8,HSI_TP10,Battery,Elements
2023-08-31 16:09:41.638,,,,,,,,,,,,,,,,,,,,,,,,,,,,,,,,,,,,,,/muse/event/connected Muse-D424
2023-08-31 16:09:41.721,,,,,,,,,,,,,,,,,,,,,,,,,,,,,,,,,,,,,,/muse/elements/blink
2023-08-31 16:09:41.724,,,,,,,,,,,,,,,,,,,,,,,,,,,,,,,,,,,,,,/muse/elements/blink
2023-08-31 16:09:41.730,,,,,,,,,,,,,,,,,,,,,,,,,,,,,,,,,,,,,,/muse/elements/blink
2023-08-31 16:09:41.731,,,,,,,,,,,,,,,,,,,,,,,,,,,,,,,,,,,,,,/muse/elements/jaw_clench
2023-08-31 16:09:42.078,,,,,,,,,,,,,,,,,,,,,,,,,,,,,,,,,,,,,,/muse/elements/blink
2023-08-31 16:09:42.499,,,,,,,,,,,,,,,,,,,,,,,,,,,,,,,,,,,,,,/muse/elements/blink
2023-08-31 16:09:42.639,0,0.8110208390545194,0.7494309937670264,0,0,0.1671497010073112,0.4042874268048181,0,0,0.439024970191995,0.2988092084603367,0,0,0.5220300720133172,0.8978411240418598,0,0,0.3861405485611596,0.6081299022950167,0,636.2271062271062,767.1794871794872,826.4102564102565,0,817.5457875457876,-0.387939,0.114746,0.902771,2.183228,-3.252411,-0.650482,1,4,1,1,4,75.000000
2023-08-31 16:09:43.107,,,,,,,,,,,,,,,,,,,,,,,,,,,,,,,,,,,,,,/muse/elements/blink
2023-08-31 16:09:43.390,,,,,,,,,,,,,,,,,,,,,,,,,,,,,,,,,,,,,,/muse/elements/blink
2023-08-31 16:09:43.477,,,,,,,,,,,,,,,,,,,,,,,,,,,,,,,,,,,,,,/muse/elements/jaw_clench
2023-08-31 16:09:43.629,,,,,,,,,,,,,,,,,,,,,,,,,,,,,,,,,,,,,,/muse/elements/blink
2023-08-31 16:09:43.641,0,0.9014789367687802,0.9095104866208723,0,0,0.3066035850111983,0.6194644535375262,0,0,0.5332873189678108,0.6375111006411016,0,0,0.3694775929845207,0.7789031329104706,0,0,0.2851387691887783,0.439325720292807,0,1344.175824175824,801.025641025641,795.7875457875458,1209.59706959707,1008.131868131868,-0.390564,0.121521,0.905212,2.983246,-2.347717,-1.644897,1,4,1,1,4,75.000000
2023-08-31 16:09:43.912,,,,,,,,,,,,,,,,,,,,,,,,,,,,,,,,,,,,,,/muse/elements/blink
2023-08-31 16:09:44.609,,,,,,,,,,,,,,,,,,,,,,,,,,,,,,,,,,,,,,/muse/elements/jaw_clench
2023-08-31 16:09:44.642,0,0.7564981073271967,0.8001620109805997,0,0,0.2645972633658807,0.2509820335422974,0,0,0.5241351356027787,0.6073648400622418,0,0,0.1544668660781457,0.5784924312856381,0,0,0.1760321960082956,0.3773283525291425,0,0,803.8461538461539,791.3553113553114,512.1245421245421,808.6813186813187,-0.410645,0.110168,0.888367,1.704712,-3.790741,-3.140259,1,4,1,1,4,75.000000
2023-08-31 16:09:44.962,,,,,,,,,,,,,,,,,,,,,,,,,,,,,,,,,,,,,,/muse/elements/jaw_clench
2023-08-31 16:09:45.444,,,,,,,,,,,,,,,,,,,,,,,,,,,,,,,,,,,,,,/muse/elements/blink
2023-08-31 16:09:45.639,0,0.6518066703895627,0.7322131103677826,0,0,0.353449287094097,0.2473009519252934,0,0,0.246966899615359,0.3144034631912518,0,0,0.227905350108924,0.4919185903098547,0,0,0.04766130651239788,0.2352560838383085,0,1624.615384615385,794.1758241758242,799.0109890109891,880.4029304029305,762.3443223443223,-0.414673,0.111206,0.889954,2.160797,-3.327179,-0.441132,1,4,1,1,4,75.000000
2023-08-31 16:09:45.725,,,,,,,,,,,,,,,,,,,,,,,,,,,,,,,,,,,,,,/muse/elements/blink
2023-08-31 16:09:46.070,,,,,,,,,,,,,,,,,,,,,,,,,,,,,,,,,,,,,,/muse/elements/blink
2023-08-31 16:09:46.643,0,0.722306115980425,0.5646205208001627,0,0,0.2356262600841769,0.3550106487963495,0,0,0.1820323311914619,0.4465980024266208,0,0,0.5030995798475398,0.5136083508089184,0,0,0.1932753346047488,0.3476152956155048,0,1589.56043956044,791.3553113553114,805.0549450549451,823.992673992674,786.1172161172161,-0.399170,0.116882,0.897949,1.914062,-4.344025,-1.996307,1,2,1,1,4,75.000000
2023-08-31 16:09:46.764,,,,,,,,,,,,,,,,,,,,,,,,,,,,,,,,,,,,,,/muse/elements/blink
2023-08-31 16:09:46.764,,,,,,,,,,,,,,,,,,,,,,,,,,,,,,,,,,,,,,/muse/elements/jaw_clench
2023-08-31 16:09:47.284,,,,,,,,,,,,,,,,,,,,,,,,,,,,,,,,,,,,,,/muse/elements/blink
2023-08-31 16:09:47.644,0,0.7552200341644119,0.6652075940690931,0,0,0.3141414025159577,0.4810256414314278,0,0,0.3973315680663141,0.3669438506646078,0,0,0.4251973053188441,0.4638759427893429,0,0,0.09298146317391873,0.4722709889715187,0,0,790.5494505494506,780.4761904761905,1035.531135531136,702.3076923076924,-0.422180,0.108826,0.886047,1.764526,-3.386993,-2.100983,1,4,1,1,4,75.000000
2023-08-31 16:09:47.892,,,,,,,,,,,,,,,,,,,,,,,,,,,,,,,,,,,,,,/muse/elements/blink
2023-08-31 16:09:48.641,0,0.3411782797133284,0.7358705134414461,0,0,0.02154876764130814,0.4612560777795954,0,0,0.0927648115278667,0.3410042570441307,0,0,0.4112767535967088,0.4600928236237028,0,0,0.01988726263206763,0.4629244023767592,0,1625.018315018315,786.9230769230769,804.2490842490843,0,648.3150183150183,-0.432495,0.090210,0.883362,3.663635,-2.011261,-5.734711,1,4,1,1,4,75.000000
2023-08-31 16:09:49.639,0,0.2837685233543675,0.2374820443430843,0,0,-0.02105748445744092,-0.03110800348626398,0,0,0.003864598500951847,0.3687681722196425,0,0,0.2729046373827285,0.4000093792873719,0,0,0.09203914648025475,0.2544666114379788,0,1625.018315018315,797.3992673992674,803.4432234432235,16.92307692307692,714.7985347985348,-0.468140,0.077087,0.872986,5.271149,-1.801910,-5.704803,1,2,1,1,4,75.000000
2023-08-31 16:09:50.518,,,,,,,,,,,,,,,,,,,,,,,,,,,,,,,,,,,,,,/muse/elements/blink
2023-08-31 16:09:50.605,,,,,,,,,,,,,,,,,,,,,,,,,,,,,,,,,,,,,,/muse/elements/jaw_clench
2023-08-31 16:09:50.638,0,0.1540354616238248,0.3056348656018819,0,0,-0.3386446048925727,-0.1762517530856194,0,0,-0.008551607451893657,0.2300364815227957,0,0,0.2369777237403462,0.3937372339443849,0,0,0.1305627644194221,0.362916020428784,0,1189.450549450549,784.1025641025641,802.6373626373627,719.2307692307693,772.4175824175825,-0.400879,0.081116,0.901672,1.001892,-7.454376,0.889740,1,4,1,1,4,75.000000
2023-08-31 16:09:50.802,,,,,,,,,,,,,,,,,,,,,,,,,,,,,,,,,,,,,,/muse/elements/blink
2023-08-31 16:09:50.802,,,,,,,,,,,,,,,,,,,,,,,,,,,,,,,,,,,,,,/muse/elements/jaw_clench
2023-08-31 16:09:51.638,0,0.1692724898465803,0.3251197295407574,0,0,-0.2328853877431765,-0.2431082331877202,0,0,-0.1105830634904602,0.285644589661912,0,0,0.2024483920328939,0.5415883377386538,0,0,-0.1120091887749357,0.3391951188463472,0,1438.461538461539,793.7728937728938,793.7728937728938,117.2527472527473,691.4285714285714,-0.394409,0.076843,0.899902,2.803802,-3.080444,-0.942078,1,2,1,1,4,75.000000
2023-08-31 16:09:51.649,,,,,,,,,,,,,,,,,,,,,,,,,,,,,,,,,,,,,,/muse/elements/blink
2023-08-31 16:09:52.150,,,,,,,,,,,,,,,,,,,,,,,,,,,,,,,,,,,,,,/muse/elements/blink
2023-08-31 16:09:52.347,,,,,,,,,,,,,,,,,,,,,,,,,,,,,,,,,,,,,,/muse/elements/blink
2023-08-31 16:09:52.347,,,,,,,,,,,,,,,,,,,,,,,,,,,,,,,,,,,,,,/muse/elements/jaw_clench
2023-08-31 16:09:52.523,,,,,,,,,,,,,,,,,,,,,,,,,,,,,,,,,,,,,,/muse/elements/jaw_clench
2023-08-31 16:09:52.648,0,0.5115932493646886,0.5046402045748547,0,0,0.1023090736972109,0.1808249016799824,0,0,0.2103103762163784,0.4558653232578338,0,0,0.1109310889589826,0.3978032396771026,0,0,-0.1799964769519259,0.2495775691812165,0,487.5457875457876,791.7582417582418,790.5494505494506,779.2673992673992,827.2161172161173,-0.374268,0.088745,0.915100,-1.801910,-3.611298,6.280518,1,4,1,1,4,75.000000
2023-08-31 16:09:52.807,,,,,,,,,,,,,,,,,,,,,,,,,,,,,,,,,,,,,,/muse/elements/jaw_clench
2023-08-31 16:09:52.853,,,,,,,,,,,,,,,,,,,,,,,,,,,,,,,,,,,,,,/muse/elements/blink
2023-08-31 16:09:53.244,,,,,,,,,,,,,,,,,,,,,,,,,,,,,,,,,,,,,,/muse/elements/blink
2023-08-31 16:09:53.483,,,,,,,,,,,,,,,,,,,,,,,,,,,,,,,,,,,,,,/muse/elements/blink
2023-08-31 16:09:53.637,0,0.6919960867711969,0.5999047119575606,0,0,0.2253621985846896,0.4972303079159016,0,0,0.4303394489188375,0.4279953064616656,0,0,0.1741004597596739,0.281159827647804,0,0,-0.07616635956671193,0.3069910242111183,0,755.0915750915751,801.4285714285714,800.6227106227107,0,619.3040293040293,-0.369751,0.081482,0.919556,9.600220,-5.667419,-11.783447,1,4,1,1,4,75.000000
2023-08-31 16:09:53.853,,,,,,,,,,,,,,,,,,,,,,,,,,,,,,,,,,,,,,/muse/elements/blink
2023-08-31 16:09:53.853,,,,,,,,,,,,,,,,,,,,,,,,,,,,,,,,,,,,,,/muse/elements/jaw_clench
2023-08-31 16:09:54.180,,,,,,,,,,,,,,,,,,,,,,,,,,,,,,,,,,,,,,/muse/elements/jaw_clench
2023-08-31 16:09:54.354,,,,,,,,,,,,,,,,,,,,,,,,,,,,,,,,,,,,,,/muse/elements/blink
2023-08-31 16:09:54.354,,,,,,,,,,,,,,,,,,,,,,,,,,,,,,,,,,,,,,/muse/elements/jaw_clench
2023-08-31 16:09:54.648,0,0.9316167240223737,0.6823134571654158,0,0,0.5417600823641677,0.5070173320059428,0,0,0.6299753587153666,0.5906620707269384,0,0,0.1684602841058904,0.35733270120933,0,0,-0.136293722760407,0.2744764502085751,0,1159.6336996337,799.0109890109891,795.3846153846154,1629.85347985348,727.2893772893773,-0.374634,0.079468,0.915527,0.725250,-2.026215,2.706604,1,4,1,1,4,75.000000
2023-08-31 16:09:54.985,,,,,,,,,,,,,,,,,,,,,,,,,,,,,,,,,,,,,,/muse/elements/blink
2023-08-31 16:09:55.072,,,,,,,,,,,,,,,,,,,,,,,,,,,,,,,,,,,,,,/muse/elements/jaw_clench
2023-08-31 16:09:55.596,,,,,,,,,,,,,,,,,,,,,,,,,,,,,,,,,,,,,,/muse/elements/blink
2023-08-31 16:09:55.638,0,0.5899724359279948,0.5498190845196469,0,0,0.4227235273816607,0.3690106742082879,0,0,0.599918852943723,0.4649648647243168,0,0,0.2122820769408182,0.5209024354541605,0,0,0.05003080787370249,0.3696511024773945,0,1384.468864468864,793.3699633699634,811.0989010989011,940.0366300366301,700.2930402930403,-0.368286,0.112305,0.917542,4.403839,-2.287903,-2.175751,1,4,1,1,4,75.000000
2023-08-31 16:09:56.012,,,,,,,,,,,,,,,,,,,,,,,,,,,,,,,,,,,,,,/muse/elements/blink
2023-08-31 16:09:56.274,,,,,,,,,,,,,,,,,,,,,,,,,,,,,,,,,,,,,,/muse/elements/blink
2023-08-31 16:09:56.426,,,,,,,,,,,,,,,,,,,,,,,,,,,,,,,,,,,,,,/muse/elements/jaw_clench
2023-08-31 16:09:56.638,0,0.03257393953800597,0.275563052064255,0,0,-0.2962643268285322,-0.064610477848305,0,0,0.1123976070189969,0.4036452890643557,0,0,0.1017035681471052,0.4209718590123628,0,0,-0.03182725330292879,0.313065049170332,0,910.6227106227107,797.3992673992674,787.7289377289378,19.34065934065934,756.3003663003664,-0.375366,0.111816,0.900085,1.465454,-5.443115,0.770111,1,4,1,1,4,75.000000
2023-08-31 16:09:56.798,,,,,,,,,,,,,,,,,,,,,,,,,,,,,,,,,,,,,,/muse/elements/jaw_clench
2023-08-31 16:09:57.321,,,,,,,,,,,,,,,,,,,,,,,,,,,,,,,,,,,,,,/muse/elements/blink
2023-08-31 16:09:57.638,0,-0.0662555992439629,-0.1051402679921674,0,0,-0.2642575945386064,-0.2030610254733086,0,0,0.1199454543241258,0.152888965456832,0,0,-0.04074413574669094,0.3265547889401856,0,0,-0.1058627623740702,0.2444845060788346,0,1002.087912087912,780.8791208791209,810.6959706959707,931.978021978022,837.2893772893773,-0.371277,0.131348,0.913574,1.241150,-3.058014,1.914062,1,4,1,1,4,75.000000
2023-08-31 16:09:57.930,,,,,,,,,,,,,,,,,,,,,,,,,,,,,,,,,,,,,,/muse/elements/blink
2023-08-31 16:09:57.930,,,,,,,,,,,,,,,,,,,,,,,,,,,,,,,,,,,,,,/muse/elements/jaw_clench
2023-08-31 16:09:58.257,,,,,,,,,,,,,,,,,,,,,,,,,,,,,,,,,,,,,,/muse/elements/jaw_clench
2023-08-31 16:09:58.433,,,,,,,,,,,,,,,,,,,,,,,,,,,,,,,,,,,,,,/muse/elements/blink
2023-08-31 16:09:58.641,0,0.8364597078060488,0.720497555668888,0,0,-0.2071883986907896,0.2635451207963511,0,0,0.03278703828006239,0.4532113260914125,0,0,0.1202997186566379,0.3125603215997234,0,0,-0.1238396742669106,0.283248826422468,0,723.6630036630037,799.8168498168499,812.3076923076924,777.6556776556777,1016.190476190476,-0.359497,0.096313,0.911621,-0.089722,-5.480499,-3.469238,1,4,1,1,4,80.000000
2023-08-31 16:09:58.716,,,,,,,,,,,,,,,,,,,,,,,,,,,,,,,,,,,,,,/muse/elements/blink
2023-08-31 16:09:59.239,,,,,,,,,,,,,,,,,,,,,,,,,,,,,,,,,,,,,,/muse/elements/jaw_clench
2023-08-31 16:09:59.479,,,,,,,,,,,,,,,,,,,,,,,,,,,,,,,,,,,,,,/muse/elements/blink
2023-08-31 16:09:59.566,,,,,,,,,,,,,,,,,,,,,,,,,,,,,,,,,,,,,,/muse/elements/jaw_clench
2023-08-31 16:09:59.643,0,0.6021069245948448,0.9065462469570135,0,0,-0.06777907368156362,0.386508372243814,0,0,0.08636248968202816,0.5012478105677812,0,0,0.03447127059348223,0.3783124145067359,0,0,-0.2163453800537042,0.4075620492593106,0,792.1611721611722,796.1904761904763,812.7106227106227,513.7362637362637,800.2197802197802,-0.312683,0.062927,0.938477,1.988831,-4.964600,-0.508423,1,4,1,1,4,80.000000
2023-08-31 16:09:59.655,,,,,,,,,,,,,,,,,,,,,,,,,,,,,,,,,,,,,,/muse/elements/blink
2023-08-31 16:09:59.849,,,,,,,,,,,,,,,,,,,,,,,,,,,,,,,,,,,,,,/muse/elements/blink
2023-08-31 16:10:00.067,,,,,,,,,,,,,,,,,,,,,,,,,,,,,,,,,,,,,,/muse/elements/blink
2023-08-31 16:10:00.351,,,,,,,,,,,,,,,,,,,,,,,,,,,,,,,,,,,,,,/muse/elements/blink
2023-08-31 16:10:00.640,0,0.2853531143350914,0.5677360205975399,0,0,0.01968882588753147,0.1149372041702091,0,0,0.1624566557881623,0.4387416632396429,0,0,0.002428265447842315,0.3420752606919015,0,0,-0.2991723775395324,0.1328890261626181,0,1247.875457875458,805.4578754578755,796.5934065934066,1022.637362637363,783.6996336996338,-0.369934,0.047668,0.914490,0.523376,-2.601929,0.418701,1,4,1,1,4,80.000000
2023-08-31 16:10:00.784,,,,,,,,,,,,,,,,,,,,,,,,,,,,,,,,,,,,,,/muse/elements/jaw_clench
2023-08-31 16:10:00.981,,,,,,,,,,,,,,,,,,,,,,,,,,,,,,,,,,,,,,/muse/elements/blink
2023-08-31 16:10:01.069,,,,,,,,,,,,,,,,,,,,,,,,,,,,,,,,,,,,,,/muse/elements/jaw_clench
2023-08-31 16:10:01.571,,,,,,,,,,,,,,,,,,,,,,,,,,,,,,,,,,,,,,/muse/elements/blink
2023-08-31 16:10:01.645,0,-0.1665509608165478,0.5185528194679199,0,0,0.1072374888015001,0.07764068194348554,0,0,0.04843197619609296,0.3978370175690094,0,0,0.06072224704357877,0.2733300359847849,0,0,-0.2314081652083599,0.04888821314519349,0,938.4249084249085,781.6849816849817,792.967032967033,1071.391941391941,944.8717948717949,-0.371338,0.086914,0.914734,2.691650,-0.448608,-0.388794,1,4,1,1,4,80.000000
2023-08-31 16:10:02.091,,,,,,,,,,,,,,,,,,,,,,,,,,,,,,,,,,,,,,/muse/elements/jaw_clench
2023-08-31 16:10:02.179,,,,,,,,,,,,,,,,,,,,,,,,,,,,,,,,,,,,,,/muse/elements/blink
2023-08-31 16:10:02.527,,,,,,,,,,,,,,,,,,,,,,,,,,,,,,,,,,,,,,/muse/elements/blink
2023-08-31 16:10:02.638,0,-0.04174216423569919,0.2616740074513508,0,0,0.07007645849537356,0.08515437853974511,0,0,0.3347714997390526,0.2215740681011062,0,0,0.08267727506410218,0.4472834531954538,0,0,-0.2130827257445342,0.154805330158972,0,706.7399267399268,788.1318681318681,799.8168498168499,1367.948717948718,963.8095238095239,-0.396790,0.098450,0.898865,1.734619,-4.471130,-0.762634,1,4,1,1,4,80.000000
2023-08-31 16:10:03.318,,,,,,,,,,,,,,,,,,,,,,,,,,,,,,,,,,,,,,/muse/elements/blink
2023-08-31 16:10:03.318,,,,,,,,,,,,,,,,,,,,,,,,,,,,,,,,,,,,,,/muse/elements/jaw_clench
2023-08-31 16:10:03.638,0,-0.1359501541502269,0.6101092957228932,0,0,-0.01300039506720967,0.3288841299563348,0,0,0.4112846638845555,0.5833222935492591,0,0,-0.01746406604976764,0.6127716938592827,0,0,0.002116221709549349,0.2767781740162686,0,268.7545787545787,807.0695970695971,791.3553113553114,294.5421245421246,969.047619047619,-0.384277,0.098328,0.909363,1.973877,-5.682373,-1.749573,1,4,1,1,4,80.000000
2023-08-31 16:10:04.102,,,,,,,,,,,,,,,,,,,,,,,,,,,,,,,,,,,,,,/muse/elements/blink
2023-08-31 16:10:04.190,,,,,,,,,,,,,,,,,,,,,,,,,,,,,,,,,,,,,,/muse/elements/jaw_clench
2023-08-31 16:10:04.428,,,,,,,,,,,,,,,,,,,,,,,,,,,,,,,,,,,,,,/muse/elements/blink
2023-08-31 16:10:04.638,0,0.4431179478804684,0.6477844819303193,0,0,0.2172426285844215,0.4076991378805858,0,0,0.4817061683569944,0.6306963088021085,0,0,0.2806218433386763,0.4488876812105647,0,0,0.003067252437657207,0.3372565550769943,0,0,780.8791208791209,796.5934065934066,516.5567765567765,989.1941391941392,-0.318665,0.073486,0.929688,5.644989,-5.988922,-5.375824,1,4,1,1,4,80.000000
2023-08-31 16:10:04.820,,,,,,,,,,,,,,,,,,,,,,,,,,,,,,,,,,,,,,/muse/elements/blink
2023-08-31 16:10:05.147,,,,,,,,,,,,,,,,,,,,,,,,,,,,,,,,,,,,,,/muse/elements/blink
2023-08-31 16:10:05.431,,,,,,,,,,,,,,,,,,,,,,,,,,,,,,,,,,,,,,/muse/elements/blink
2023-08-31 16:10:05.638,0,0.2609806435630229,0.2469358976004397,0,0,0.1484032439772036,-0.05300445239093771,0,0,0.5481865453043284,0.5805160516898711,0,0,0.3254387583389773,0.3834010205959461,0,0,-0.07523379580779997,0.173431355679471,0,1524.688644688645,787.7289377289378,809.8901098901099,982.3443223443223,1061.721611721612,-0.293091,0.084595,0.931946,1.674805,-3.072968,2.011261,1,4,1,1,2,80.000000
2023-08-31 16:10:05.758,,,,,,,,,,,,,,,,,,,,,,,,,,,,,,,,,,,,,,/muse/elements/blink
2023-08-31 16:10:06.193,,,,,,,,,,,,,,,,,,,,,,,,,,,,,,,,,,,,,,/muse/elements/blink
2023-08-31 16:10:06.193,,,,,,,,,,,,,,,,,,,,,,,,,,,,,,,,,,,,,,/muse/elements/jaw_clench
2023-08-31 16:10:06.542,,,,,,,,,,,,,,,,,,,,,,,,,,,,,,,,,,,,,,/muse/elements/blink
2023-08-31 16:10:06.637,0,0.1171868563782994,0.1926020702429561,0,0,0.2567685841604654,-0.02329774773428146,0,0,0.5983344292077887,0.3816315240065056,0,0,0.2742339404274615,0.3783503387817799,0,0,-0.05742111449128479,0.1710383688550231,0,835.6776556776557,788.9377289377289,801.025641025641,700.6959706959707,1165.274725274725,-0.363770,0.091614,0.918030,0.314026,5.891724,3.102875,1,4,1,1,4,80.000000
2023-08-31 16:10:06.651,,,,,,,,,,,,,,,,,,,,,,,,,,,,,,,,,,,,,,/muse/elements/jaw_clench
2023-08-31 16:10:07.069,,,,,,,,,,,,,,,,,,,,,,,,,,,,,,,,,,,,,,/muse/elements/blink
2023-08-31 16:10:07.418,,,,,,,,,,,,,,,,,,,,,,,,,,,,,,,,,,,,,,/muse/elements/blink
2023-08-31 16:10:07.637,0,0.1487353404918102,0.743922766621462,0,0,0.08754904313022206,-0.002458124089608896,0,0,0.4590843190808946,0.3668651244873021,0,0,0.1690397469723715,0.4049412197163717,0,0,0.06498516132690139,0.5157415369372803,0,1332.087912087912,792.5641025641025,801.4285714285714,1196.703296703297,1096.373626373626,-0.403137,0.097961,0.892151,1.495361,-4.628143,-1.256104,1,4,1,1,4,80.000000
2023-08-31 16:10:07.682,,,,,,,,,,,,,,,,,,,,,,,,,,,,,,,,,,,,,,/muse/elements/jaw_clench
2023-08-31 16:10:08.012,,,,,,,,,,,,,,,,,,,,,,,,,,,,,,,,,,,,,,/muse/elements/blink
2023-08-31 16:10:08.468,,,,,,,,,,,,,,,,,,,,,,,,,,,,,,,,,,,,,,/muse/elements/blink
2023-08-31 16:10:08.620,,,,,,,,,,,,,,,,,,,,,,,,,,,,,,,,,,,,,,/muse/elements/jaw_clench
2023-08-31 16:10:08.637,0,0.6792923723747086,1.187994886849575,0,0,0.3528024299204157,0.6689492012864893,0,0,0.4915195894719153,0.9902902067691126,0,0,0.2524648102324801,0.5816270114384074,0,0,-0.05549859316932992,0.556327507830271,0,101.1355311355311,772.4175824175825,795.7875457875458,985.9706959706961,893.2967032967033,-0.395996,0.099854,0.902649,2.198181,-2.684174,-0.613098,1,4,1,1,4,100.000000
2023-08-31 16:10:09.514,,,,,,,,,,,,,,,,,,,,,,,,,,,,,,,,,,,,,,/muse/elements/blink
2023-08-31 16:10:09.637,0,0.7458084044330253,1.042339099043399,0,0,0.4844968193422777,0.5372226770026646,0,0,0.6073359374504194,0.8094937497766926,0,0,0.2154283203348173,0.5105815947801412,0,0,-0.1658367057028991,0.4410229447509125,0,1211.611721611722,762.7472527472528,803.040293040293,0,948.4981684981685,-0.480896,0.077881,0.863586,0.710297,-1.854248,-0.471039,1,4,1,1,4,100.000000
2023-08-31 16:10:09.840,,,,,,,,,,,,,,,,,,,,,,,,,,,,,,,,,,,,,,/muse/elements/blink
2023-08-31 16:10:10.637,0,0.6610351329214832,0.8513053043642089,0,0,0.6230457701267044,0.3575890544766749,0,0,0.5853783828581102,0.2434815659913113,0,0,0.03958564025201249,0.6468248110055055,0,0,-0.2905104128159729,0.5549725859041738,0,1128.608058608059,798.6080586080586,814.3223443223443,1278.095238095238,972.6739926739928,-0.465820,0.071533,0.863708,0.590668,-4.508514,0.433655,1,4,1,1,4,100.000000
2023-08-31 16:10:10.644,,,,,,,,,,,,,,,,,,,,,,,,,,,,,,,,,,,,,,/muse/elements/jaw_clench
2023-08-31 16:10:11.145,,,,,,,,,,,,,,,,,,,,,,,,,,,,,,,,,,,,,,/muse/elements/blink
2023-08-31 16:10:11.145,,,,,,,,,,,,,,,,,,,,,,,,,,,,,,,,,,,,,,/muse/elements/jaw_clench
2023-08-31 16:10:11.637,0,0.3354178071177432,0.4501985700336706,0,0,-0.07600628923257309,-0.03707435490971886,0,0,0.3664624639467283,0.3390510868835079,0,0,0.2229294174788234,0.5720649576095693,0,0,-0.05703888489077982,0.4199849076606555,0,836.4835164835165,796.996336996337,802.6373626373627,1625.421245421245,760.7326007326008,-0.452393,0.101807,0.879944,-1.143951,-5.697327,2.078552,1,2,1,1,4,100.000000
2023-08-31 16:10:11.643,,,,,,,,,,,,,,,,,,,,,,,,,,,,,,,,,,,,,,/muse/elements/blink
2023-08-31 16:10:12.124,,,,,,,,,,,,,,,,,,,,,,,,,,,,,,,,,,,,,,/muse/elements/blink
2023-08-31 16:10:12.637,0,0.1827823314205341,0.6152889881231794,0,0,0.1990079878801509,0.3195438185278708,0,0,0.4161644153684167,0.4708868262520468,0,0,0.1366964509176087,0.5047718836234149,0,0,0.0236400902062478,0.4081733588565558,0,801.025641025641,793.3699633699634,796.5934065934066,1199.92673992674,950.9157509157509,-0.406128,0.099243,0.890503,3.379517,-2.115936,-0.052338,1,2,1,1,4,100.000000
2023-08-31 16:10:12.643,,,,,,,,,,,,,,,,,,,,,,,,,,,,,,,,,,,,,,/muse/elements/blink
2023-08-31 16:10:12.969,,,,,,,,,,,,,,,,,,,,,,,,,,,,,,,,,,,,,,/muse/elements/blink
2023-08-31 16:10:13.338,,,,,,,,,,,,,,,,,,,,,,,,,,,,,,,,,,,,,,/muse/elements/blink
2023-08-31 16:10:13.576,,,,,,,,,,,,,,,,,,,,,,,,,,,,,,,,,,,,,,/muse/elements/blink
2023-08-31 16:10:13.576,,,,,,,,,,,,,,,,,,,,,,,,,,,,,,,,,,,,,,/muse/elements/jaw_clench
2023-08-31 16:10:13.637,0,0.4328403023590972,1.028853803856332,0,0,0.3584746594673552,0.5697897664330962,0,0,0.3280316554715343,0.6657797200268543,0,0,0.1064919829844099,0.4894927041091717,0,0,-0.08238722213387623,0.1535683163142484,0,891.6849816849817,794.5787545787546,805.0549450549451,757.9120879120879,821.1721611721612,-0.413269,0.108704,0.890869,3.229980,-5.278625,-1.009369,1,4,1,1,4,100.000000
2023-08-31 16:10:13.966,,,,,,,,,,,,,,,,,,,,,,,,,,,,,,,,,,,,,,/muse/elements/blink
2023-08-31 16:10:14.293,,,,,,,,,,,,,,,,,,,,,,,,,,,,,,,,,,,,,,/muse/elements/blink
2023-08-31 16:10:14.488,,,,,,,,,,,,,,,,,,,,,,,,,,,,,,,,,,,,,,/muse/elements/jaw_clench
2023-08-31 16:10:14.637,0,0.4577186663789415,0.7334258457027011,0,0,0.2463464455760291,0.4175756132653172,0,0,0.1598578011134908,0.5079061634280634,0,0,0.1249648242293394,0.262434300528713,0,0,-0.3034930825903506,0.1124628914394402,0,657.985347985348,791.7582417582418,804.2490842490843,1340.549450549451,703.1135531135532,-0.401184,0.125916,0.894348,2.175751,-4.261780,-0.852356,1,4,1,1,4,100.000000
2023-08-31 16:10:15.096,,,,,,,,,,,,,,,,,,,,,,,,,,,,,,,,,,,,,,/muse/elements/blink
2023-08-31 16:10:15.334,,,,,,,,,,,,,,,,,,,,,,,,,,,,,,,,,,,,,,/muse/elements/blink
2023-08-31 16:10:15.637,0,0.4916842091207602,0.7962589966006082,0,0,0.1931686244099129,0.6430079676300566,0,0,0.218260256835811,0.4972374016793561,0,0,0.1557369993303382,0.3167258498369726,0,0,-0.2517552342894011,0.3049625999404706,0,873.1501831501831,793.3699633699634,812.3076923076924,738.5714285714286,753.4798534798535,-0.398804,0.132629,0.901855,-0.934601,-1.143951,2.482300,1,4,1,1,4,100.000000
2023-08-31 16:10:15.659,,,,,,,,,,,,,,,,,,,,,,,,,,,,,,,,,,,,,,/muse/elements/blink
2023-08-31 16:10:15.659,,,,,,,,,,,,,,,,,,,,,,,,,,,,,,,,,,,,,,/muse/elements/jaw_clench
2023-08-31 16:10:15.921,,,,,,,,,,,,,,,,,,,,,,,,,,,,,,,,,,,,,,/muse/elements/blink
2023-08-31 16:10:16.030,,,,,,,,,,,,,,,,,,,,,,,,,,,,,,,,,,,,,,/muse/elements/jaw_clench
2023-08-31 16:10:16.116,,,,,,,,,,,,,,,,,,,,,,,,,,,,,,,,,,,,,,/muse/elements/blink
2023-08-31 16:10:16.637,0,0.4195293690187327,0.6688717253144895,0,0,0.3657605651994437,0.4563792969624102,0,0,0.3798610273227401,0.4411143045765042,0,0,0.1230309789000966,0.3238196109260848,0,0,-0.238139967877216,0.08702239598513051,0,1051.648351648352,797.3992673992674,806.2637362637363,390.4395604395605,790.952380952381,-0.377441,0.126892,0.909546,3.327179,-3.446808,-2.474823,1,4,1,1,4,100.000000
2023-08-31 16:10:16.638,,,,,,,,,,,,,,,,,,,,,,,,,,,,,,,,,,,,,,/muse/elements/blink
2023-08-31 16:10:16.921,,,,,,,,,,,,,,,,,,,,,,,,,,,,,,,,,,,,,,/muse/elements/blink
2023-08-31 16:10:17.334,,,,,,,,,,,,,,,,,,,,,,,,,,,,,,,,,,,,,,/muse/elements/blink
2023-08-31 16:10:17.636,0,0.719505918892851,0.7048750242581558,0,0,0.259273392694632,0.4391486434223215,0,0,0.4166438385812254,0.2184057259096183,0,0,0.07720985217786731,0.3234847101289788,0,0,-0.04748749862517664,0.1260521095218662,0,743.0036630036631,791.3553113553114,794.5787545787546,842.1245421245421,1127.399267399268,-0.385010,0.101440,0.903992,2.639313,-3.768311,-0.545807,1,4,1,1,2,100.000000
2023-08-31 16:10:18.374,,,,,,,,,,,,,,,,,,,,,,,,,,,,,,,,,,,,,,/muse/elements/blink
2023-08-31 16:10:18.647,0,0.1935915382312682,0.1934698827843643,0,0,-0.0880088337205996,-0.07038471412197615,0,0,-0.01870676924078569,0.2286007332777407,0,0,8.381962015284945e-05,0.2944828975306924,0,0,-0.02619767999887648,0.1825922647453731,0,931.978021978022,781.6849816849817,798.6080586080586,500.0366300366301,954.9450549450549,-0.361206,0.084961,0.910522,0.052338,-6.205750,2.542114,1,4,1,1,2,100.000000
2023-08-31 16:10:18.659,,,,,,,,,,,,,,,,,,,,,,,,,,,,,,,,,,,,,,/muse/elements/blink
2023-08-31 16:10:18.833,,,,,,,,,,,,,,,,,,,,,,,,,,,,,,,,,,,,,,/muse/elements/blink
2023-08-31 16:10:19.263,,,,,,,,,,,,,,,,,,,,,,,,,,,,,,,,,,,,,,/muse/elements/blink
2023-08-31 16:10:19.590,,,,,,,,,,,,,,,,,,,,,,,,,,,,,,,,,,,,,,/muse/elements/blink
2023-08-31 16:10:19.643,0,0.3460089309927671,0.109928496497482,0,0,0.0622879582249957,0.001278210670786281,0,0,0.1779258425414761,0.2448776066156414,0,0,0.03380076169933605,0.18820864682899,0,0,-0.08653133436037577,0.180710577483546,0,1624.615384615385,796.1904761904763,793.7728937728938,944.8717948717949,922.3076923076924,-0.342712,0.096069,0.926636,2.003784,-4.800110,3.469238,1,4,1,1,2,75.000000
2023-08-31 16:10:19.852,,,,,,,,,,,,,,,,,,,,,,,,,,,,,,,,,,,,,,/muse/elements/blink
2023-08-31 16:10:20.047,,,,,,,,,,,,,,,,,,,,,,,,,,,,,,,,,,,,,,/muse/elements/jaw_clench
2023-08-31 16:10:20.286,,,,,,,,,,,,,,,,,,,,,,,,,,,,,,,,,,,,,,/muse/elements/blink
2023-08-31 16:10:20.286,,,,,,,,,,,,,,,,,,,,,,,,,,,,,,,,,,,,,,/muse/elements/jaw_clench
2023-08-31 16:10:20.483,,,,,,,,,,,,,,,,,,,,,,,,,,,,,,,,,,,,,,/muse/elements/blink
2023-08-31 16:10:20.571,,,,,,,,,,,,,,,,,,,,,,,,,,,,,,,,,,,,,,/muse/elements/jaw_clench
2023-08-31 16:10:20.636,0,0.3817070067048312,0.2394186424589116,0,0,0.1534234959680505,-0.005103008643961094,0,0,0.2112428786152978,0.2535036554177281,0,0,0.09430175858780813,0.1372810497622489,0,0,-0.200286939827328,0.1776652864944483,0,1279.70695970696,799.4139194139194,801.8315018315019,592.7106227106227,978.7179487179487,-0.348389,0.096985,0.916138,1.001892,-1.368256,1.203766,1,4,1,1,4,75.000000
2023-08-31 16:10:20.811,,,,,,,,,,,,,,,,,,,,,,,,,,,,,,,,,,,,,,/muse/elements/blink
2023-08-31 16:10:21.179,,,,,,,,,,,,,,,,,,,,,,,,,,,,,,,,,,,,,,/muse/elements/blink
2023-08-31 16:10:21.637,0,0.2932333687815936,0.2140848499674431,0,0,0.006305588143989863,0.007106373000343824,0,0,0.3125544706920089,0.3073606340159744,0,0,0.02017921711724327,0.3291975923637484,0,0,-0.3828954225630292,0.1561440173618481,0,1012.564102564103,777.2527472527473,804.2490842490843,807.4725274725275,1000.879120879121,-0.382019,0.083374,0.908813,0.029907,-0.456085,5.704803,1,2,1,1,2,75.000000
2023-08-31 16:10:21.698,,,,,,,,,,,,,,,,,,,,,,,,,,,,,,,,,,,,,,/muse/elements/blink
2023-08-31 16:10:22.310,,,,,,,,,,,,,,,,,,,,,,,,,,,,,,,,,,,,,,/muse/elements/jaw_clench
2023-08-31 16:10:22.636,0,1.107443528009412,0.9418132762579097,0,0,0.5154101406692204,0.2204239603029386,0,0,0.733672146691055,0.3958824367758259,0,0,-0.13248083857551,0.3881694680409591,0,0,-0.3757287344125577,0.2136054695495167,0,1245.054945054945,793.3699633699634,807.4725274725275,747.8388278388279,821.5750915750916,-0.451294,0.096558,0.883179,5.465546,2.684174,4.590759,1,4,1,1,4,75.000000
2023-08-31 16:10:22.830,,,,,,,,,,,,,,,,,,,,,,,,,,,,,,,,,,,,,,/muse/elements/jaw_clench
2023-08-31 16:10:23.005,,,,,,,,,,,,,,,,,,,,,,,,,,,,,,,,,,,,,,/muse/elements/jaw_clench
2023-08-31 16:10:23.354,,,,,,,,,,,,,,,,,,,,,,,,,,,,,,,,,,,,,,/muse/elements/blink
2023-08-31 16:10:23.530,,,,,,,,,,,,,,,,,,,,,,,,,,,,,,,,,,,,,,/muse/elements/blink
2023-08-31 16:10:23.637,0,0.9891989605352287,1.043923687968285,0,0,0.6717379958543312,0.7289095582945053,0,0,0.7507333330295453,0.588834438524018,0,0,0.02011682263276084,0.3531548035727604,0,0,-0.2932565659953024,0.08839283282963017,0,967.4358974358975,774.4322344322345,767.1794871794872,1037.545787545788,1016.593406593407,-0.469299,0.184326,0.844360,3.401947,-2.968292,6.886139,1,2,1,1,4,75.000000
2023-08-31 16:10:23.941,,,,,,,,,,,,,,,,,,,,,,,,,,,,,,,,,,,,,,/muse/elements/jaw_clench
2023-08-31 16:10:24.050,,,,,,,,,,,,,,,,,,,,,,,,,,,,,,,,,,,,,,/muse/elements/blink
2023-08-31 16:10:24.226,,,,,,,,,,,,,,,,,,,,,,,,,,,,,,,,,,,,,,/muse/elements/blink
2023-08-31 16:10:24.334,,,,,,,,,,,,,,,,,,,,,,,,,,,,,,,,,,,,,,/muse/elements/jaw_clench
2023-08-31 16:10:24.465,,,,,,,,,,,,,,,,,,,,,,,,,,,,,,,,,,,,,,/muse/elements/blink
2023-08-31 16:10:24.637,0,0.8383747931961275,0.9337291007274238,0,0,0.4126060969929409,0.4917645185946954,0,0,0.1156104613473688,0.5966225159873543,0,0,0.09974443887433267,0.3884190845264596,0,0,-0.2542662666834619,0.1278032559851116,0,921.9047619047619,794.1758241758242,792.1611721611722,1129.41391941392,1026.666666666667,-0.451172,0.225647,0.839539,3.282318,-3.835602,2.392578,1,2,1,1,4,75.000000
2023-08-31 16:10:24.747,,,,,,,,,,,,,,,,,,,,,,,,,,,,,,,,,,,,,,/muse/elements/blink
2023-08-31 16:10:24.942,,,,,,,,,,,,,,,,,,,,,,,,,,,,,,,,,,,,,,/muse/elements/blink
2023-08-31 16:10:25.272,,,,,,,,,,,,,,,,,,,,,,,,,,,,,,,,,,,,,,/muse/elements/blink
2023-08-31 16:10:25.537,,,,,,,,,,,,,,,,,,,,,,,,,,,,,,,,,,,,,,/muse/elements/blink
2023-08-31 16:10:25.637,0,0.2545039084009519,0.5363065544851602,0,0,-0.05789662315969226,-0.3007159298186001,0,0,0.04620106404459579,0.2658001252185539,0,0,-0.01075856377243452,0.3595808505355447,0,0,-0.1888343023419267,0.2745247186109518,0,1091.941391941392,776.4468864468864,792.967032967033,1615.750915750916,982.3443223443223,-0.422485,0.150269,0.877441,0.553284,-4.912262,-1.368256,1,2,1,1,4,75.000000
2023-08-31 16:10:26.060,,,,,,,,,,,,,,,,,,,,,,,,,,,,,,,,,,,,,,/muse/elements/jaw_clench
2023-08-31 16:10:26.299,,,,,,,,,,,,,,,,,,,,,,,,,,,,,,,,,,,,,,/muse/elements/blink
2023-08-31 16:10:26.639,0,0.4024324041760354,0.03014846434361115,0,0,-0.07915447645182047,-0.1272397772164372,0,0,0.2585017178742411,0.3379317971309126,0,0,0.09501976173967519,0.5208081210033567,0,0,0.1403083696396034,0.4186259811878672,0,975.8974358974359,788.9377289377289,805.4578754578755,186.5567765567766,923.5164835164835,-0.419983,0.084961,0.873413,-1.166382,3.573914,-13.622742,1,2,1,1,4,75.000000
2023-08-31 16:10:26.887,,,,,,,,,,,,,,,,,,,,,,,,,,,,,,,,,,,,,,/muse/elements/jaw_clench
2023-08-31 16:10:27.281,,,,,,,,,,,,,,,,,,,,,,,,,,,,,,,,,,,,,,/muse/elements/blink
2023-08-31 16:10:27.638,0,0.2137700970434902,-0.2483886960487575,0,0,-0.0560099360745701,-0.1635192815584693,0,0,0.3775210187287431,0.5955989352139714,0,0,0.4689424349568413,0.7385470295457676,0,0,0.3041087600304959,0.6409734780257619,0,35.05494505494506,791.7582417582418,792.967032967033,1543.626373626374,1172.124542124542,-0.411682,0.076294,0.896484,1.614990,-2.915955,0.605621,1,4,1,1,4,75.000000
2023-08-31 16:10:27.800,,,,,,,,,,,,,,,,,,,,,,,,,,,,,,,,,,,,,,/muse/elements/blink
2023-08-31 16:10:28.129,,,,,,,,,,,,,,,,,,,,,,,,,,,,,,,,,,,,,,/muse/elements/blink
2023-08-31 16:10:28.129,,,,,,,,,,,,,,,,,,,,,,,,,,,,,,,,,,,,,,/muse/elements/jaw_clench
2023-08-31 16:10:28.645,0,0.1015441046813369,-0.2008490234052979,0,0,-0.1502842656310212,-0.2697436808776649,0,0,0.4462542070857359,0.5472856848943025,0,0,0.5272881237147921,0.768742321705105,0,0,0.2808897304890694,0.6025240874233484,0,973.8827838827839,790.1465201465202,803.8461538461539,893.2967032967033,983.956043956044,-0.369446,0.083496,0.907715,-1.958923,-7.708588,3.872986,1,4,1,1,4,75.000000
2023-08-31 16:10:28.935,,,,,,,,,,,,,,,,,,,,,,,,,,,,,,,,,,,,,,/muse/elements/jaw_clench
2023-08-31 16:10:29.002,,,,,,,,,,,,,,,,,,,,,,,,,,,,,,,,,,,,,,/muse/elements/blink
2023-08-31 16:10:29.219,,,,,,,,,,,,,,,,,,,,,,,,,,,,,,,,,,,,,,/muse/elements/jaw_clench
2023-08-31 16:10:29.438,,,,,,,,,,,,,,,,,,,,,,,,,,,,,,,,,,,,,,/muse/elements/blink
2023-08-31 16:10:29.642,0,-0.04303955024668069,0.6070838173057971,0,0,0.05513066620960377,-0.03297297180626126,0,0,0.4213272735631473,0.3809845290478588,0,0,0.4517209375705489,0.5743760531644095,0,0,-0.1086473812827302,0.2359985588797064,0,156.3369963369964,782.0879120879121,786.1172161172161,817.948717948718,1109.67032967033,-0.328003,0.085022,0.923584,1.629944,-1.659851,1.951447,1,4,1,1,4,80.000000
2023-08-31 16:10:29.807,,,,,,,,,,,,,,,,,,,,,,,,,,,,,,,,,,,,,,/muse/elements/blink
2023-08-31 16:10:30.045,,,,,,,,,,,,,,,,,,,,,,,,,,,,,,,,,,,,,,/muse/elements/jaw_clench
2023-08-31 16:10:30.154,,,,,,,,,,,,,,,,,,,,,,,,,,,,,,,,,,,,,,/muse/elements/blink
2023-08-31 16:10:30.219,,,,,,,,,,,,,,,,,,,,,,,,,,,,,,,,,,,,,,/muse/elements/jaw_clench
2023-08-31 16:10:30.414,,,,,,,,,,,,,,,,,,,,,,,,,,,,,,,,,,,,,,/muse/elements/blink
2023-08-31 16:10:30.641,0,0.4557714679172094,0.9090238700364981,0,0,-0.2329562413683705,0.05252451177630608,0,0,0.1573205920113338,0.3861502689536822,0,0,0.2596612038291868,0.4337684312203692,0,0,-0.2094045791880514,0.1409837497554168,0,990.8058608058608,811.9047619047619,803.4432234432235,547.1794871794872,1115.714285714286,-0.377075,0.090942,0.906189,2.145844,-3.155212,-0.119629,1,4,1,1,4,80.000000
2023-08-31 16:10:30.653,,,,,,,,,,,,,,,,,,,,,,,,,,,,,,,,,,,,,,/muse/elements/jaw_clench
2023-08-31 16:10:30.740,,,,,,,,,,,,,,,,,,,,,,,,,,,,,,,,,,,,,,/muse/elements/blink
2023-08-31 16:10:31.022,,,,,,,,,,,,,,,,,,,,,,,,,,,,,,,,,,,,,,/muse/elements/blink
2023-08-31 16:10:31.347,,,,,,,,,,,,,,,,,,,,,,,,,,,,,,,,,,,,,,/muse/elements/blink
2023-08-31 16:10:31.455,,,,,,,,,,,,,,,,,,,,,,,,,,,,,,,,,,,,,,/muse/elements/jaw_clench
2023-08-31 16:10:31.543,,,,,,,,,,,,,,,,,,,,,,,,,,,,,,,,,,,,,,/muse/elements/blink
2023-08-31 16:10:31.642,0,0.8120614395071349,0.8109700728753495,0,0,-0.1263565836922165,-0.246842313755478,0,0,0.06918315092969139,0.1559892295186587,0,0,0.306872394470781,0.4200391740838481,0,0,-0.1625730048214394,0.2265791913757878,0,946.0805860805862,812.7106227106227,805.4578754578755,789.3406593406594,921.5018315018315,-0.403992,0.112976,0.889343,3.656158,-3.020630,-1.158905,1,2,1,1,4,80.000000
2023-08-31 16:10:31.782,,,,,,,,,,,,,,,,,,,,,,,,,,,,,,,,,,,,,,/muse/elements/jaw_clench
2023-08-31 16:10:32.067,,,,,,,,,,,,,,,,,,,,,,,,,,,,,,,,,,,,,,/muse/elements/blink
2023-08-31 16:10:32.154,,,,,,,,,,,,,,,,,,,,,,,,,,,,,,,,,,,,,,/muse/elements/jaw_clench
2023-08-31 16:10:32.391,,,,,,,,,,,,,,,,,,,,,,,,,,,,,,,,,,,,,,/muse/elements/jaw_clench
2023-08-31 16:10:32.564,,,,,,,,,,,,,,,,,,,,,,,,,,,,,,,,,,,,,,/muse/elements/blink
2023-08-31 16:10:32.643,0,0.876829635885598,0.8521997608466428,0,0,0.3127393953556719,0.4970025587003694,0,0,0.2654157092280254,0.5806329015676287,0,0,0.2600544694330493,0.4391377162109004,0,0,-0.0319445219619855,0.3717409300601193,0,834.8717948717949,811.5018315018315,772.8205128205128,799.4139194139194,984.7619047619048,-0.397278,0.116272,0.891541,1.996307,-4.239349,-1.398163,1,4,1,1,4,80.000000
2023-08-31 16:10:32.674,,,,,,,,,,,,,,,,,,,,,,,,,,,,,,,,,,,,,,/muse/elements/jaw_clench
2023-08-31 16:10:32.871,,,,,,,,,,,,,,,,,,,,,,,,,,,,,,,,,,,,,,/muse/elements/blink
2023-08-31 16:10:33.090,,,,,,,,,,,,,,,,,,,,,,,,,,,,,,,,,,,,,,/muse/elements/blink
2023-08-31 16:10:33.607,,,,,,,,,,,,,,,,,,,,,,,,,,,,,,,,,,,,,,/muse/elements/jaw_clench
2023-08-31 16:10:33.637,0,0.9939609707390692,0.9209576530775669,0,0,0.4216320124075997,0.6064114689144113,0,0,0.5973961620511672,0.5061097476485558,0,0,0.2297732472056879,0.4948463376794852,0,0,-0.1375418994567577,0.2551251770036014,0,573.7728937728938,779.2673992673992,816.7399267399268,673.6996336996338,1079.047619047619,-0.391357,0.124023,0.897278,1.600037,-4.553375,0.807495,1,4,1,1,4,80.000000
2023-08-31 16:10:33.695,,,,,,,,,,,,,,,,,,,,,,,,,,,,,,,,,,,,,,/muse/elements/blink
2023-08-31 16:10:34.607,,,,,,,,,,,,,,,,,,,,,,,,,,,,,,,,,,,,,,/muse/elements/blink
2023-08-31 16:10:34.641,0,1.036317134765975,0.9050557811358841,0,0,0.5575569053150957,0.5661502313723725,0,0,0.6072590061982346,0.4604377217400719,0,0,0.1739944037028349,0.4901061798024936,0,0,-0.03874010727296492,0.1603615998828951,0,1183.809523809524,784.9084249084249,788.5347985347986,1562.564102564103,909.8168498168499,-0.382141,0.125305,0.904846,2.235565,-3.603821,-1.024323,1,4,1,1,4,80.000000
2023-08-31 16:10:35.021,,,,,,,,,,,,,,,,,,,,,,,,,,,,,,,,,,,,,,/muse/elements/blink
2023-08-31 16:10:35.109,,,,,,,,,,,,,,,,,,,,,,,,,,,,,,,,,,,,,,/muse/elements/jaw_clench
2023-08-31 16:10:35.305,,,,,,,,,,,,,,,,,,,,,,,,,,,,,,,,,,,,,,/muse/elements/blink
2023-08-31 16:10:35.637,0,0.9874085392400141,0.9239762001245807,0,0,0.6095859546564011,0.5741174794218628,0,0,0.5012450245747194,0.4381810218865019,0,0,0.2424539806410487,0.4663103816394769,0,0,0.03931619537574816,0.2386435426568921,0,0,798.6080586080586,792.1611721611722,10.07326007326007,958.1684981684982,-0.381836,0.127808,0.909119,6.863708,-5.069275,-8.037567,1,4,1,1,4,80.000000
2023-08-31 16:10:35.893,,,,,,,,,,,,,,,,,,,,,,,,,,,,,,,,,,,,,,/muse/elements/blink
2023-08-31 16:10:35.893,,,,,,,,,,,,,,,,,,,,,,,,,,,,,,,,,,,,,,/muse/elements/jaw_clench
2023-08-31 16:10:36.219,,,,,,,,,,,,,,,,,,,,,,,,,,,,,,,,,,,,,,/muse/elements/blink
2023-08-31 16:10:36.637,0,0.7541937306312148,0.4643743642130312,0,0,0.4642283367459983,0.2430677310714753,0,0,0.4884205745653135,0.4577413001044203,0,0,0.2793201564983174,0.5399703458909199,0,0,-0.01716897147452784,0.2499316321810105,0,1162.454212454212,783.6996336996338,801.025641025641,74.54212454212454,1069.78021978022,-0.370972,0.107178,0.905396,-1.076660,-2.123413,3.491669,1,4,1,1,4,80.000000
2023-08-31 16:10:37.131,,,,,,,,,,,,,,,,,,,,,,,,,,,,,,,,,,,,,,/muse/elements/blink
2023-08-31 16:10:37.636,0,0.8700323489153615,0.6303354993379259,0,0,0.4878091885382651,0.3866547267730742,0,0,0.5124247956542839,0.38642096798672,0,0,0.1605208553363145,0.3911103250997611,0,0,-0.1567651084409684,0.05964324712934506,0,901.3553113553114,789.7435897435897,802.2344322344322,199.8534798534799,1051.245421245421,-0.349609,0.116577,0.897400,0.351410,-6.153412,3.843079,1,4,1,1,4,80.000000
2023-08-31 16:10:38.478,,,,,,,,,,,,,,,,,,,,,,,,,,,,,,,,,,,,,,/muse/elements/blink
2023-08-31 16:10:38.636,0,-0.08095683040429619,-0.004036315855162464,0,0,-0.2040379173119622,-0.1426361819989211,0,0,0.2044091710669265,0.3307467748684376,0,0,0.06353047023889942,0.3847696390437564,0,0,-0.1468707044090804,0.04206051342327843,0,1387.692307692308,789.3406593406594,792.5641025641025,675.3113553113553,1008.131868131868,-0.339417,0.079468,0.921082,0.643005,-0.889740,0.328979,1,4,1,1,4,80.000000
2023-08-31 16:10:38.781,,,,,,,,,,,,,,,,,,,,,,,,,,,,,,,,,,,,,,/muse/elements/jaw_clench
2023-08-31 16:10:38.848,,,,,,,,,,,,,,,,,,,,,,,,,,,,,,,,,,,,,,/muse/elements/blink
2023-08-31 16:10:39.367,,,,,,,,,,,,,,,,,,,,,,,,,,,,,,,,,,,,,,/muse/elements/blink
2023-08-31 16:10:39.636,0,0.04069613063885111,0.03938848198166944,0,0,-0.04848032185056694,0.03899631240152005,0,0,0.4217849901105549,0.7178977500896423,0,0,0.1399719395362601,0.4455233476331119,0,0,-0.1499988450858238,0.1790700413819896,0,756.7032967032967,797.8021978021978,791.7582417582418,1166.886446886447,1114.505494505494,-0.334045,0.114441,0.921936,5.248718,-1.368256,-0.672913,1,4,1,1,4,80.000000
2023-08-31 16:10:39.798,,,,,,,,,,,,,,,,,,,,,,,,,,,,,,,,,,,,,,/muse/elements/jaw_clench
2023-08-31 16:10:39.992,,,,,,,,,,,,,,,,,,,,,,,,,,,,,,,,,,,,,,/muse/elements/blink
2023-08-31 16:10:40.405,,,,,,,,,,,,,,,,,,,,,,,,,,,,,,,,,,,,,,/muse/elements/jaw_clench
2023-08-31 16:10:40.637,0,0.5465273006347328,-0.1499031762991742,0,0,0.3614008478117613,-0.03084368365032157,0,0,0.470797965648556,0.813152323479382,0,0,0.1831195784003779,0.307646833856464,0,0,-0.2042451045193919,0.1726730889627392,0,737.3626373626374,791.3553113553114,804.2490842490843,1427.582417582418,1048.827838827839,-0.366455,0.087402,0.910156,4.508514,5.435638,-8.314209,1,4,1,1,4,80.000000
2023-08-31 16:10:41.514,,,,,,,,,,,,,,,,,,,,,,,,,,,,,,,,,,,,,,/muse/elements/jaw_clench
2023-08-31 16:10:41.622,,,,,,,,,,,,,,,,,,,,,,,,,,,,,,,,,,,,,,/muse/elements/blink
2023-08-31 16:10:41.637,0,0.5150382556864821,0.3161120956519333,0,0,0.1969697860045959,-0.3403868203074624,0,0,0.2736377926352098,0.06989888542258171,0,0,0.009446693188669659,0.254948042365374,0,0,-0.3226512084324576,0.2655056801771406,0,827.2161172161173,750.6593406593407,758.3150183150184,1157.619047619048,896.9230769230769,-0.461121,0.117981,0.871826,-0.710297,-8.620758,4.605713,1,4,1,1,4,80.000000
2023-08-31 16:10:41.924,,,,,,,,,,,,,,,,,,,,,,,,,,,,,,,,,,,,,,/muse/elements/blink
2023-08-31 16:10:42.421,,,,,,,,,,,,,,,,,,,,,,,,,,,,,,,,,,,,,,/muse/elements/jaw_clench
2023-08-31 16:10:42.637,0,0.9509685331955609,0.759414794627077,0,0,-0.1520334820551631,-0.2024879315101654,0,0,0.08506455572074198,0.04704301429324189,0,0,0.06719720419681081,0.3834667347401329,0,0,-0.4144302766659311,0.3270305540677147,0,292.5274725274725,792.5641025641025,780.4761904761905,77.76556776556777,926.3369963369963,-0.446594,0.080627,0.878357,1.076660,-8.059998,-2.325287,1,4,1,1,4,80.000000
2023-08-31 16:10:42.834,,,,,,,,,,,,,,,,,,,,,,,,,,,,,,,,,,,,,,/muse/elements/blink
2023-08-31 16:10:42.834,,,,,,,,,,,,,,,,,,,,,,,,,,,,,,,,,,,,,,/muse/elements/jaw_clench
2023-08-31 16:10:43.356,,,,,,,,,,,,,,,,,,,,,,,,,,,,,,,,,,,,,,/muse/elements/jaw_clench
2023-08-31 16:10:43.444,,,,,,,,,,,,,,,,,,,,,,,,,,,,,,,,,,,,,,/muse/elements/blink
2023-08-31 16:10:43.532,,,,,,,,,,,,,,,,,,,,,,,,,,,,,,,,,,,,,,/muse/elements/jaw_clench
2023-08-31 16:10:43.637,0,0.6059391042630159,0.3370458566423503,0,0,-0.2529310857210739,-0.1694654316855062,0,0,0.2981351521511834,-0.07167607485869178,0,0,-0.007068704194501424,0.2421870744997353,0,0,-0.3500860469367651,0.1099839747792511,0,1241.428571428572,800.2197802197802,802.6373626373627,1620.18315018315,938.4249084249085,-0.417908,0.062805,0.906616,-5.420685,-3.379517,9.248810,1,4,1,1,4,80.000000
2023-08-31 16:10:44.056,,,,,,,,,,,,,,,,,,,,,,,,,,,,,,,,,,,,,,/muse/elements/blink
2023-08-31 16:10:44.448,,,,,,,,,,,,,,,,,,,,,,,,,,,,,,,,,,,,,,/muse/elements/jaw_clench
2023-08-31 16:10:44.637,0,0.4130018261186569,0.6480742880635965,0,0,-0.1253302348520641,0.2943224222880497,0,0,0.2285336954694344,0.7159464730803997,0,0,0.0179707540245152,0.4234662874945716,0,0,-0.3244203023211366,0.2848412947128143,0,924.7252747252747,745.8241758241759,769.1941391941392,29.01098901098901,663.6263736263736,-0.370300,0.090637,0.911987,3.663635,-4.089813,-5.981445,1,4,1,1,4,80.000000
2023-08-31 16:10:44.686,,,,,,,,,,,,,,,,,,,,,,,,,,,,,,,,,,,,,,/muse/elements/blink
2023-08-31 16:10:45.357,,,,,,,,,,,,,,,,,,,,,,,,,,,,,,,,,,,,,,/muse/elements/jaw_clench
2023-08-31 16:10:45.466,,,,,,,,,,,,,,,,,,,,,,,,,,,,,,,,,,,,,,/muse/elements/blink
2023-08-31 16:10:45.553,,,,,,,,,,,,,,,,,,,,,,,,,,,,,,,,,,,,,,/muse/elements/jaw_clench
2023-08-31 16:10:45.637,0,0.9151201355202571,1.036827027631817,0,0,-0.1824013042541714,0.7135599121226156,0,0,0.1631725045068203,0.6468247085202498,0,0,0.01030009862503029,0.4157173447168446,0,0,-0.2776294960715067,0.2204330844134638,0,1630.25641025641,811.0989010989011,825.6043956043957,1147.142857142857,753.0769230769231,-0.444275,0.110596,0.874878,7.925415,0.209351,0.829926,1,4,1,1,4,80.000000
2023-08-31 16:10:45.788,,,,,,,,,,,,,,,,,,,,,,,,,,,,,,,,,,,,,,/muse/elements/blink
2023-08-31 16:10:46.069,,,,,,,,,,,,,,,,,,,,,,,,,,,,,,,,,,,,,,/muse/elements/blink
2023-08-31 16:10:46.069,,,,,,,,,,,,,,,,,,,,,,,,,,,,,,,,,,,,,,/muse/elements/jaw_clench
2023-08-31 16:10:46.266,,,,,,,,,,,,,,,,,,,,,,,,,,,,,,,,,,,,,,/muse/elements/jaw_clench
2023-08-31 16:10:46.593,,,,,,,,,,,,,,,,,,,,,,,,,,,,,,,,,,,,,,/muse/elements/blink
2023-08-31 16:10:46.636,0,1.169862386283459,0.3303511727241927,0,0,0.2648397762545856,0.2173905914570896,0,0,0.1851694134676855,0.2202834458891816,0,0,-0.02126928740791331,0.3209099576041092,0,0,-0.1801684695006225,0.1383880750073142,0,1349.41391941392,819.96336996337,794.1758241758242,863.0769230769231,762.3443223443223,-0.422302,0.083008,0.887085,-2.175751,-2.631836,4.530945,1,4,1,1,4,80.000000
2023-08-31 16:10:46.767,,,,,,,,,,,,,,,,,,,,,,,,,,,,,,,,,,,,,,/muse/elements/blink
2023-08-31 16:10:47.483,,,,,,,,,,,,,,,,,,,,,,,,,,,,,,,,,,,,,,/muse/elements/blink
2023-08-31 16:10:47.636,0,1.044469251107895,0.4858004623143553,0,0,0.4232052151520204,0.06462249139522075,0,0,0.4060112729353675,0.57690325294622,0,0,-0.07644594615140571,0.238298317193457,0,0,-0.1816602620605714,-0.003431932475112538,0,933.5897435897436,805.0549450549451,785.7142857142858,11.68498168498169,493.992673992674,-0.460571,0.076904,0.882202,-1.069183,5.757141,-9.360962,1,4,1,1,4,80.000000
2023-08-31 16:10:47.898,,,,,,,,,,,,,,,,,,,,,,,,,,,,,,,,,,,,,,/muse/elements/jaw_clench
2023-08-31 16:10:48.311,,,,,,,,,,,,,,,,,,,,,,,,,,,,,,,,,,,,,,/muse/elements/blink
2023-08-31 16:10:48.505,,,,,,,,,,,,,,,,,,,,,,,,,,,,,,,,,,,,,,/muse/elements/jaw_clench
2023-08-31 16:10:48.648,0,0.7759131609672192,0.9797717681809178,0,0,0.4374196144570754,0.4670030515716829,0,0,0.5101392545731241,0.6564427477061411,0,0,0.01685727330845298,0.2731521947755416,0,0,-0.2665641717487818,0.1299766615129423,0,1059.70695970696,796.5934065934066,777.2527472527473,926.7399267399268,590.6959706959707,-0.468018,-0.003174,0.863098,2.452393,-6.826324,-2.871094,1,4,1,1,4,80.000000
2023-08-31 16:10:48.681,,,,,,,,,,,,,,,,,,,,,,,,,,,,,,,,,,,,,,/muse/elements/jaw_clench
2023-08-31 16:10:48.832,,,,,,,,,,,,,,,,,,,,,,,,,,,,,,,,,,,,,,/muse/elements/blink
2023-08-31 16:10:49.116,,,,,,,,,,,,,,,,,,,,,,,,,,,,,,,,,,,,,,/muse/elements/blink
2023-08-31 16:10:49.312,,,,,,,,,,,,,,,,,,,,,,,,,,,,,,,,,,,,,,/muse/elements/blink
2023-08-31 16:10:49.549,,,,,,,,,,,,,,,,,,,,,,,,,,,,,,,,,,,,,,/muse/elements/blink
2023-08-31 16:10:49.549,,,,,,,,,,,,,,,,,,,,,,,,,,,,,,,,,,,,,,/muse/elements/jaw_clench
2023-08-31 16:10:49.637,0,0.2546253796375249,0.639967666515353,0,0,-0.1844651302178344,0.3125592054966269,0,0,0.4269343846065488,0.492750748636373,0,0,0.22438870219155,0.2901071390924976,0,0,-0.3045874940814625,0.2539695879511385,0,711.978021978022,799.8168498168499,789.3406593406594,404.1391941391942,628.5714285714286,-0.470398,0.033936,0.875061,3.790741,-1.914062,-2.519684,1,4,1,1,4,80.000000
2023-08-31 16:10:49.815,,,,,,,,,,,,,,,,,,,,,,,,,,,,,,,,,,,,,,/muse/elements/blink
2023-08-31 16:10:50.141,,,,,,,,,,,,,,,,,,,,,,,,,,,,,,,,,,,,,,/muse/elements/blink
2023-08-31 16:10:50.422,,,,,,,,,,,,,,,,,,,,,,,,,,,,,,,,,,,,,,/muse/elements/blink
2023-08-31 16:10:50.637,0,0.4906168921872344,0.3679059638112278,0,0,0.2351290191017099,0.0413403179016788,0,0,0.345771452561091,0.2857398371625109,0,0,0.1559584831202982,0.4059825187683522,0,0,-0.3062176466812148,0.06655157214348426,0,144.6520146520147,805.8608058608058,788.5347985347986,806.6666666666667,812.7106227106227,-0.462891,0.071106,0.863708,8.486176,-4.687958,-9.817047,1,4,1,1,4,75.000000
2023-08-31 16:10:50.748,,,,,,,,,,,,,,,,,,,,,,,,,,,,,,,,,,,,,,/muse/elements/blink
2023-08-31 16:10:51.141,,,,,,,,,,,,,,,,,,,,,,,,,,,,,,,,,,,,,,/muse/elements/blink
2023-08-31 16:10:51.469,,,,,,,,,,,,,,,,,,,,,,,,,,,,,,,,,,,,,,/muse/elements/blink
2023-08-31 16:10:51.469,,,,,,,,,,,,,,,,,,,,,,,,,,,,,,,,,,,,,,/muse/elements/jaw_clench
2023-08-31 16:10:51.636,0,0.8345310235636972,0.9581754659410212,0,0,0.5044167981613465,0.5783698017098298,0,0,0.6252921555543103,0.5044380748423938,0,0,0.1354407420400114,0.3508981782188867,0,0,-0.2170521943249587,0.02689335982674326,0,1607.692307692308,796.996336996337,797.8021978021978,486.3369963369964,464.1758241758242,-0.421082,0.040955,0.895874,0.979462,-3.648682,2.467346,1,4,1,1,4,75.000000
2023-08-31 16:10:51.644,,,,,,,,,,,,,,,,,,,,,,,,,,,,,,,,,,,,,,/muse/elements/blink
2023-08-31 16:10:51.903,,,,,,,,,,,,,,,,,,,,,,,,,,,,,,,,,,,,,,/muse/elements/blink
2023-08-31 16:10:52.492,,,,,,,,,,,,,,,,,,,,,,,,,,,,,,,,,,,,,,/muse/elements/blink
2023-08-31 16:10:52.636,0,0.1599376515556716,0.402896916573684,0,0,0.1339286870583607,0.3699894683080732,0,0,0.5090402898444883,0.5065806810363297,0,0,-0.0505946320831749,0.2486819950119191,0,0,-0.3826597327932138,0.03341863889713916,0,830.4395604395604,799.8168498168499,788.9377289377289,14.50549450549451,408.1684981684982,-0.452576,0.037231,0.871094,0.553284,3.902893,-8.979645,1,4,1,1,4,75.000000
2023-08-31 16:10:52.949,,,,,,,,,,,,,,,,,,,,,,,,,,,,,,,,,,,,,,/muse/elements/blink
2023-08-31 16:10:52.949,,,,,,,,,,,,,,,,,,,,,,,,,,,,,,,,,,,,,,/muse/elements/jaw_clench
2023-08-31 16:10:53.187,,,,,,,,,,,,,,,,,,,,,,,,,,,,,,,,,,,,,,/muse/elements/blink
2023-08-31 16:10:53.402,,,,,,,,,,,,,,,,,,,,,,,,,,,,,,,,,,,,,,/muse/elements/jaw_clench
2023-08-31 16:10:53.490,,,,,,,,,,,,,,,,,,,,,,,,,,,,,,,,,,,,,,/muse/elements/blink
2023-08-31 16:10:53.636,0,0.4124690135471782,0.4215006363542673,0,0,0.1780078947069074,0.1121403992634192,0,0,0.2949992428279046,0.3341582047184625,0,0,-0.07232274308913514,0.3369672939351687,0,0,-0.2409571896267334,-0.01283505505320353,0,713.5897435897436,722.0512820512821,776.4468864468864,6.446886446886447,383.5897435897436,-0.398254,0.048828,0.903015,-0.575714,-0.366364,3.544006,1,4,1,1,4,75.000000
2023-08-31 16:10:53.794,,,,,,,,,,,,,,,,,,,,,,,,,,,,,,,,,,,,,,/muse/elements/jaw_clench
2023-08-31 16:10:53.903,,,,,,,,,,,,,,,,,,,,,,,,,,,,,,,,,,,,,,/muse/elements/blink
2023-08-31 16:10:54.097,,,,,,,,,,,,,,,,,,,,,,,,,,,,,,,,,,,,,,/muse/elements/blink
2023-08-31 16:10:54.425,,,,,,,,,,,,,,,,,,,,,,,,,,,,,,,,,,,,,,/muse/elements/blink
2023-08-31 16:10:54.599,,,,,,,,,,,,,,,,,,,,,,,,,,,,,,,,,,,,,,/muse/elements/jaw_clench
2023-08-31 16:10:54.636,0,0.6967121552991039,0.7566853543203399,0,0,-0.02355294571112914,0.5011425303615077,0,0,0.03031769648002097,0.2676423289882941,0,0,-0.121022312897788,0.3211774448946996,0,0,-0.1559880081091594,-0.1922502986063587,0,839.7069597069598,796.996336996337,804.6520146520147,1419.120879120879,421.4652014652015,-0.482849,0.046204,0.856750,6.706696,1.114044,-9.144135,1,4,1,1,4,75.000000
2023-08-31 16:10:54.686,,,,,,,,,,,,,,,,,,,,,,,,,,,,,,,,,,,,,,/muse/elements/blink
2023-08-31 16:10:54.795,,,,,,,,,,,,,,,,,,,,,,,,,,,,,,,,,,,,,,/muse/elements/jaw_clench
2023-08-31 16:10:55.206,,,,,,,,,,,,,,,,,,,,,,,,,,,,,,,,,,,,,,/muse/elements/blink
2023-08-31 16:10:55.206,,,,,,,,,,,,,,,,,,,,,,,,,,,,,,,,,,,,,,/muse/elements/jaw_clench
2023-08-31 16:10:55.553,,,,,,,,,,,,,,,,,,,,,,,,,,,,,,,,,,,,,,/muse/elements/blink
2023-08-31 16:10:55.636,0,0.3645449875202666,1.091111029770018,0,0,-0.0682264176488321,0.766229245983657,0,0,0.06585458193724184,0.2947765465403172,0,0,0.1162789083504107,0.3612002265283322,0,0,-0.3532033837605391,0.05875740018403113,0,0,790.952380952381,805.4578754578755,1604.871794871795,455.7142857142857,-0.481018,0.060730,0.862549,7.970276,-6.826324,2.377625,1,4,1,1,4,75.000000
2023-08-31 16:10:55.729,,,,,,,,,,,,,,,,,,,,,,,,,,,,,,,,,,,,,,/muse/elements/blink
2023-08-31 16:10:55.904,,,,,,,,,,,,,,,,,,,,,,,,,,,,,,,,,,,,,,/muse/elements/blink
2023-08-31 16:10:56.427,,,,,,,,,,,,,,,,,,,,,,,,,,,,,,,,,,,,,,/muse/elements/blink
2023-08-31 16:10:56.636,0,0.4192183265058925,0.6226030004745778,0,0,-0.1638691642546669,0.5177023711887859,0,0,0.0850625312298557,0.171546620861126,0,0,0.1677267560630529,0.2555159541981645,0,0,-0.1201562439894558,0.08097847587293334,0,1039.96336996337,801.025641025641,805.0549450549451,1459.81684981685,685.3846153846154,-0.404724,0.163330,0.913818,0.725250,-4.418793,2.332764,1,4,1,1,4,75.000000
2023-08-31 16:10:56.773,,,,,,,,,,,,,,,,,,,,,,,,,,,,,,,,,,,,,,/muse/elements/jaw_clench
2023-08-31 16:10:56.840,,,,,,,,,,,,,,,,,,,,,,,,,,,,,,,,,,,,,,/muse/elements/blink
2023-08-31 16:10:57.560,,,,,,,,,,,,,,,,,,,,,,,,,,,,,,,,,,,,,,/muse/elements/blink
2023-08-31 16:10:57.636,0,0.1275352735838171,0.5659612309565483,0,0,-0.1374568331710584,0.3730181354023123,0,0,0.2684276071070425,0.37410447928576,0,0,0.1212301654088855,0.1998538245323818,0,0,-0.4003282403069066,-0.1225482744271339,0,885.2380952380953,803.4432234432235,793.3699633699634,475.0549450549451,364.6520146520147,-0.374939,0.091980,0.901489,-0.904694,-2.915955,-1.413116,1,2,1,1,4,75.000000
2023-08-31 16:10:58.636,0,-0.4113714496030879,-0.06363755694885939,0,0,-0.2160102655736047,-0.008256559800519304,0,0,0.2558526800810314,0.2635174032721778,0,0,0.06213407975937719,0.1280155770666877,0,0,-0.3975906893662143,-0.09305931233216085,0,142.6373626373626,782.0879120879121,790.952380952381,1215.641025641026,466.996336996337,-0.420044,0.040405,0.908264,-1.757050,-3.558960,-1.263580,1,4,1,1,4,75.000000
2023-08-31 16:10:58.685,,,,,,,,,,,,,,,,,,,,,,,,,,,,,,,,,,,,,,/muse/elements/blink
2023-08-31 16:10:58.971,,,,,,,,,,,,,,,,,,,,,,,,,,,,,,,,,,,,,,/muse/elements/blink
2023-08-31 16:10:59.561,,,,,,,,,,,,,,,,,,,,,,,,,,,,,,,,,,,,,,/muse/elements/blink
2023-08-31 16:10:59.637,0,0.4177144563627073,0.6943835742939417,0,0,-0.09095639879976755,-0.1927178457495769,0,0,0.1982308052677433,-0.156712553589855,0,0,0.03496564298688586,-0.05624725158904198,0,0,-0.2276989276649409,-0.01262799489598501,0,195.8241758241758,790.5494505494506,773.2234432234433,525.4212454212454,436.3736263736264,-0.396606,0.086792,0.899353,3.738403,-1.749573,2.863617,1,4,1,1,4,75.000000
2023-08-31 16:11:00.173,,,,,,,,,,,,,,,,,,,,,,,,,,,,,,,,,,,,,,/muse/elements/blink
2023-08-31 16:11:00.607,,,,,,,,,,,,,,,,,,,,,,,,,,,,,,,,,,,,,,/muse/elements/blink
2023-08-31 16:11:00.636,0,0.7130549729315407,1.087411225203263,0,0,-0.05320061143331718,-0.342691477618606,0,0,0.1644609248613699,-0.2386661417546849,0,0,-0.0600516759331918,-0.09783879402403299,0,0,-0.3988892963355083,-0.09651965231764509,0,1.208791208791209,800.2197802197802,795.7875457875458,0,326.3736263736264,-0.374146,0.084778,0.893188,2.138367,-5.944061,-0.194397,1,4,1,1,4,80.000000
2023-08-31 16:11:01.130,,,,,,,,,,,,,,,,,,,,,,,,,,,,,,,,,,,,,,/muse/elements/blink
2023-08-31 16:11:01.631,,,,,,,,,,,,,,,,,,,,,,,,,,,,,,,,,,,,,,/muse/elements/blink
2023-08-31 16:11:01.642,0,0.4952131919288409,0.2002772606595782,0,0,-0.1467629428396421,-0.00990916166508889,0,0,0.3903558915532901,0.3540150510975362,0,0,0.1188972069598901,0.1899418405676532,0,0,-0.4553532671132217,-0.1441621968039565,0,0,792.1611721611722,794.981684981685,229.6703296703297,342.4908424908425,-0.377441,0.095337,0.906128,2.848663,-4.508514,-2.407532,1,4,1,1,4,80.000000
2023-08-31 16:11:02.643,0,0.4100285917151444,-0.0583935464572072,0,0,0.2189549499677913,-0.1085407382152061,0,0,0.4838967174384475,0.4227187760761889,0,0,0.09863316683626192,0.1633669800379678,0,0,-0.4207706884687476,-0.210135722952205,0,1124.981684981685,796.5934065934066,796.1904761904763,574.1758241758242,430.7326007326008,-0.410889,0.112000,0.901184,4.381409,0.747681,0.104675,1,4,1,1,4,80.000000
2023-08-31 16:11:03.348,,,,,,,,,,,,,,,,,,,,,,,,,,,,,,,,,,,,,,/muse/elements/blink
2023-08-31 16:11:03.642,0,0.1850449256370303,0.07351640408816625,0,0,0.160958663260946,-0.1862028853266477,0,0,0.3336994695234018,0.3607792618561934,0,0,-0.08332182242846799,0.1931408495493077,0,0,-0.3606252921955787,-0.1935883272702392,0,10.47619047619048,738.974358974359,745.4212454212454,1137.472527472527,417.4358974358975,-0.394104,0.091309,0.903381,1.943970,-2.960815,-1.188812,1,4,1,1,4,80.000000
2023-08-31 16:11:03.935,,,,,,,,,,,,,,,,,,,,,,,,,,,,,,,,,,,,,,/muse/elements/blink
2023-08-31 16:11:04.345,,,,,,,,,,,,,,,,,,,,,,,,,,,,,,,,,,,,,,/muse/elements/blink
2023-08-31 16:11:04.637,0,0.5194574320377003,0.1310020487412268,0,0,-0.0522164189040684,-0.08483066564565639,0,0,-0.1730364732870821,0.2209760028801112,0,0,-0.07302200542361517,0.2139904703357923,0,0,-0.5266401115394455,0.01060700507081957,0,1122.564102564103,797.3992673992674,819.5604395604396,1408.241758241758,389.2307692307692,-0.366333,0.063599,0.909241,-0.067291,-3.282318,-2.332764,1,4,1,1,4,80.000000
2023-08-31 16:11:04.671,,,,,,,,,,,,,,,,,,,,,,,,,,,,,,,,,,,,,,/muse/elements/blink
2023-08-31 16:11:05.149,,,,,,,,,,,,,,,,,,,,,,,,,,,,,,,,,,,,,,/muse/elements/blink
2023-08-31 16:11:05.636,0,0.6238969533052702,0.1585057820651685,0,0,-0.1649577382591685,-0.07543437995212285,0,0,-0.1730364732870821,0.2196083840219431,0,0,-0.01401292558309451,0.2572927858324047,0,0,-0.5783103101659932,0.0736066263998988,0,486.7399267399268,796.5934065934066,807.4725274725275,1114.102564102564,467.3992673992674,-0.386230,0.076538,0.910950,2.086029,-4.658051,1.801910,1,4,1,1,4,80.000000
2023-08-31 16:11:05.781,,,,,,,,,,,,,,,,,,,,,,,,,,,,,,,,,,,,,,/muse/elements/blink
2023-08-31 16:11:06.196,,,,,,,,,,,,,,,,,,,,,,,,,,,,,,,,,,,,,,/muse/elements/blink
2023-08-31 16:11:06.371,,,,,,,,,,,,,,,,,,,,,,,,,,,,,,,,,,,,,,/muse/elements/blink
2023-08-31 16:11:06.608,,,,,,,,,,,,,,,,,,,,,,,,,,,,,,,,,,,,,,/muse/elements/blink
2023-08-31 16:11:06.636,0,0.6238969533052702,0.8814724109910388,0,0,-0.1649577382591685,0.3188981796595819,0,0,-0.1730364732870821,0.522401642640226,0,0,-0.01401292558309451,0.07754578797061215,0,0,-0.5783103101659932,-0.1747546380304789,0,525.4212454212454,786.1172161172161,785.7142857142858,1012.161172161172,381.5750915750916,-0.376404,0.084717,0.910217,1.614990,-2.930908,-0.321503,1,4,1,1,4,80.000000
2023-08-31 16:11:06.890,,,,,,,,,,,,,,,,,,,,,,,,,,,,,,,,,,,,,,/muse/elements/blink
2023-08-31 16:11:07.109,,,,,,,,,,,,,,,,,,,,,,,,,,,,,,,,,,,,,,/muse/elements/blink
2023-08-31 16:11:07.642,0,0.5323823320064969,0.7092816836646677,0,0,0.1439890895469734,0.4270677541441198,0,0,0.244923474962461,0.5459304808970737,0,0,-0.004355702538026069,0.1623311044878205,0,0,-0.3548996103722231,-0.124139868108591,0,259.0842490842491,801.4285714285714,804.2490842490843,1089.120879120879,406.959706959707,-0.374695,0.086548,0.906982,-2.355194,-2.422485,4.299164,1,4,1,1,4,80.000000
2023-08-31 16:11:07.849,,,,,,,,,,,,,,,,,,,,,,,,,,,,,,,,,,,,,,/muse/elements/blink
2023-08-31 16:11:08.091,,,,,,,,,,,,,,,,,,,,,,,,,,,,,,,,,,,,,,/muse/elements/blink
2023-08-31 16:11:08.331,,,,,,,,,,,,,,,,,,,,,,,,,,,,,,,,,,,,,,/muse/elements/blink
2023-08-31 16:11:08.636,0,0.3977985882101412,0.2384821575902839,0,0,0.1882151180137654,0.1289956715255673,0,0,0.2681781025782425,0.2600487974363038,0,0,0.06321063760378073,0.2090645149937117,0,0,-0.4064901851296576,-0.09970274133276846,0,579.4139194139194,794.981684981685,800.2197802197802,276.007326007326,376.3369963369963,-0.410095,0.064697,0.890259,0.351410,-6.759033,-0.411224,1,4,1,1,4,80.000000
2023-08-31 16:11:09.025,,,,,,,,,,,,,,,,,,,,,,,,,,,,,,,,,,,,,,/muse/elements/blink
2023-08-31 16:11:09.553,,,,,,,,,,,,,,,,,,,,,,,,,,,,,,,,,,,,,,/muse/elements/blink
2023-08-31 16:11:09.636,0,0.3717284411818666,0.2061750938073704,0,0,0.02344098733090543,0.2377371784752973,0,0,0.2250959292524522,0.1563172230249297,0,0,0.06434456239611432,0.1550146113695658,0,0,-0.4969296012481397,-0.1013819879965817,0,1327.655677655678,796.5934065934066,796.5934065934066,578.6080586080586,347.3260073260074,-0.420532,0.094177,0.887878,0.889740,-2.527161,2.026215,1,4,1,1,4,80.000000
2023-08-31 16:11:09.921,,,,,,,,,,,,,,,,,,,,,,,,,,,,,,,,,,,,,,/muse/elements/blink
2023-08-31 16:11:10.161,,,,,,,,,,,,,,,,,,,,,,,,,,,,,,,,,,,,,,/muse/elements/blink
2023-08-31 16:11:10.355,,,,,,,,,,,,,,,,,,,,,,,,,,,,,,,,,,,,,,/muse/elements/blink
2023-08-31 16:11:10.636,0,0.2011208030492097,0.5303637192442535,0,0,0.128705925718329,0.1839348550257883,0,0,0.1297967546017145,0.1823778971120583,0,0,-0.07690958763345858,0.1798649285394289,0,0,-0.3953468962240975,-0.3221814962330703,0,735.3479853479854,795.3846153846154,788.9377289377289,808.6813186813187,769.1941391941392,-0.393433,0.091248,0.900024,1.585083,-3.252411,0.411224,1,4,1,1,4,75.000000
2023-08-31 16:11:10.771,,,,,,,,,,,,,,,,,,,,,,,,,,,,,,,,,,,,,,/muse/elements/blink
2023-08-31 16:11:11.470,,,,,,,,,,,,,,,,,,,,,,,,,,,,,,,,,,,,,,/muse/elements/blink
2023-08-31 16:11:11.636,0,-0.1246166092440414,0.1431794609743385,0,0,-0.035025106305798,0.08586660909887504,0,0,0.2951884434046722,0.285839807649909,0,0,-0.009526594307279665,0.179980200898197,0,0,-0.4487182851194724,-0.2549560337799167,0,751.0622710622711,795.7875457875458,804.6520146520147,769.1941391941392,543.5531135531136,-0.386169,0.075012,0.906494,2.676697,-4.605713,0.164490,1,4,1,1,4,75.000000
2023-08-31 16:11:11.841,,,,,,,,,,,,,,,,,,,,,,,,,,,,,,,,,,,,,,/muse/elements/blink
2023-08-31 16:11:12.636,0,0.1573162255963425,0.3650505275717887,0,0,-0.02544065331152582,0.000961323123459618,0,0,0.2206647345861524,0.2744148940562957,0,0,-0.1354497309228831,0.1725866787750485,0,0,-0.4825138438830429,-0.1635367070515332,0,1389.304029304029,733.7362637362637,767.5824175824176,918.2783882783883,543.1501831501831,-0.391052,0.077698,0.902283,2.721558,-3.140259,-3.917847,1,4,1,1,4,75.000000
2023-08-31 16:11:12.969,,,,,,,,,,,,,,,,,,,,,,,,,,,,,,,,,,,,,,/muse/elements/blink
2023-08-31 16:11:13.295,,,,,,,,,,,,,,,,,,,,,,,,,,,,,,,,,,,,,,/muse/elements/blink
2023-08-31 16:11:13.513,,,,,,,,,,,,,,,,,,,,,,,,,,,,,,,,,,,,,,/muse/elements/blink
2023-08-31 16:11:13.636,0,0.3582221109803159,0.6248154059557115,0,0,-0.0002057940330899926,0.08892190117683371,0,0,0.1993584089173319,0.2540364538489209,0,0,-0.1979914619222045,0.2232504268155453,0,0,-0.4366998863322011,-0.07066712111178537,0,0,817.1428571428571,811.0989010989011,779.2673992673992,378.3516483516484,-0.378174,0.080078,0.907349,-0.598145,-5.674896,-0.186920,1,4,1,1,2,75.000000
2023-08-31 16:11:14.189,,,,,,,,,,,,,,,,,,,,,,,,,,,,,,,,,,,,,,/muse/elements/blink
2023-08-31 16:11:14.448,,,,,,,,,,,,,,,,,,,,,,,,,,,,,,,,,,,,,,/muse/elements/blink
2023-08-31 16:11:14.636,0,0.9568450556931445,0.7728317823389048,0,0,-0.07133340412912911,0.01681083604339393,0,0,0.2636591826668823,-0.03472551531412874,0,0,0.01143161525448814,-0.0561621142568589,0,0,-0.2245008605051037,-0.1988196004538981,0,278.021978021978,798.2051282051282,791.7582417582418,624.5421245421246,596.3369963369963,-0.393555,0.082092,0.906860,2.205658,-2.856140,1.069183,1,4,1,1,2,75.000000
2023-08-31 16:11:14.905,,,,,,,,,,,,,,,,,,,,,,,,,,,,,,,,,,,,,,/muse/elements/blink
2023-08-31 16:11:15.124,,,,,,,,,,,,,,,,,,,,,,,,,,,,,,,,,,,,,,/muse/elements/blink
2023-08-31 16:11:15.636,0,0.8869289092458894,0.6502535265809001,0,0,-0.05396054410688105,0.1531203800316868,0,0,0.3626674421266605,0.331737748669888,0,0,-0.1596046477849113,0.07632790234757728,0,0,-0.4133830489876301,-0.2535046153144842,0,1308.717948717949,803.8461538461539,799.8168498168499,448.8644688644689,664.8351648351648,-0.379700,0.062317,0.918579,1.084137,-5.166473,1.921539,1,4,1,1,2,75.000000
2023-08-31 16:11:15.824,,,,,,,,,,,,,,,,,,,,,,,,,,,,,,,,,,,,,,/muse/elements/blink
2023-08-31 16:11:16.630,,,,,,,,,,,,,,,,,,,,,,,,,,,,,,,,,,,,,,/muse/elements/blink
2023-08-31 16:11:16.644,0,0.4433387041376715,0.1631807893232256,0,0,-0.02766165792333013,0.07178935023768446,0,0,0.1853292135809116,0.3801281644980655,0,0,0.01767066996995178,0.08545543572466031,0,0,-0.4839928074636642,-0.3021622288527219,0,1360.695970695971,800.2197802197802,797.3992673992674,744.6153846153846,381.978021978022,-0.379639,0.068481,0.904419,0.814972,-3.805695,-1.592560,1,4,1,1,2,75.000000
2023-08-31 16:11:17.241,,,,,,,,,,,,,,,,,,,,,,,,,,,,,,,,,,,,,,/muse/elements/blink
2023-08-31 16:11:17.568,,,,,,,,,,,,,,,,,,,,,,,,,,,,,,,,,,,,,,/muse/elements/blink
2023-08-31 16:11:17.635,0,0.3297615989943584,0.4027709017984003,0,0,-0.2513038455520644,0.1870187344596901,0,0,0.3116358813230489,0.376214792514672,0,0,-0.03507107093881792,0.1604573775282944,0,0,-0.45226118976754,-0.3483297471341902,0,910.6227106227107,792.1611721611722,792.1611721611722,1079.85347985348,529.047619047619,-0.406250,0.043396,0.900208,1.749573,-0.859833,-0.583191,1,4,1,1,2,75.000000
2023-08-31 16:11:17.765,,,,,,,,,,,,,,,,,,,,,,,,,,,,,,,,,,,,,,/muse/elements/blink
2023-08-31 16:11:18.071,,,,,,,,,,,,,,,,,,,,,,,,,,,,,,,,,,,,,,/muse/elements/blink
2023-08-31 16:11:18.353,,,,,,,,,,,,,,,,,,,,,,,,,,,,,,,,,,,,,,/muse/elements/blink
2023-08-31 16:11:18.550,,,,,,,,,,,,,,,,,,,,,,,,,,,,,,,,,,,,,,/muse/elements/blink
2023-08-31 16:11:18.636,0,0.2838992376684605,0.2465287309875346,0,0,-0.4581490745093872,0.1617778468781239,0,0,0.350052709514933,0.3758209298314859,0,0,-0.07268682266172849,0.2399903353455558,0,0,-0.3557405296813558,-0.2339210604367971,0,1026.263736263736,766.3736263736264,757.5091575091575,876.7765567765568,358.2051282051282,-0.396362,0.088501,0.907471,-1.951447,-4.501038,8.299255,1,4,1,1,4,75.000000
2023-08-31 16:11:19.162,,,,,,,,,,,,,,,,,,,,,,,,,,,,,,,,,,,,,,/muse/elements/blink
2023-08-31 16:11:19.636,0,1.038140242025291,0.9027528287170812,0,0,0.2423851878803274,0.05101993162485096,0,0,0.4496594651310973,0.4308060793507605,0,0,0.0150811958160803,0.0496041423582214,0,0,-0.3749319253240149,-0.2404192786817299,0,91.86813186813187,797.3992673992674,791.3553113553114,691.025641025641,484.7252747252747,-0.376160,0.112061,0.908997,3.947754,-6.616974,2.639313,1,4,1,1,4,75.000000
2023-08-31 16:11:19.688,,,,,,,,,,,,,,,,,,,,,,,,,,,,,,,,,,,,,,/muse/elements/blink
2023-08-31 16:11:20.016,,,,,,,,,,,,,,,,,,,,,,,,,,,,,,,,,,,,,,/muse/elements/blink
2023-08-31 16:11:20.386,,,,,,,,,,,,,,,,,,,,,,,,,,,,,,,,,,,,,,/muse/elements/blink
2023-08-31 16:11:20.636,0,0.7537247024414369,0.6856860767899399,0,0,0.09595229134524383,-0.193705351306681,0,0,0.3518041114221199,0.2054140944339216,0,0,0.03527892123254672,0.06405628637403087,0,0,-0.4636671072437423,-0.2085798612039413,0,1607.289377289377,792.967032967033,797.8021978021978,861.8681318681319,465.7875457875458,-0.372253,0.106262,0.907715,1.517792,-4.209442,-0.358887,1,4,1,1,2,75.000000
2023-08-31 16:11:20.996,,,,,,,,,,,,,,,,,,,,,,,,,,,,,,,,,,,,,,/muse/elements/blink
2023-08-31 16:11:21.233,,,,,,,,,,,,,,,,,,,,,,,,,,,,,,,,,,,,,,/muse/elements/blink
2023-08-31 16:11:21.636,0,0.1791125552206295,0.4519668208868279,0,0,0.06138976951939085,-0.0917974841658966,0,0,0.1858467417504735,0.3049265867158908,0,0,0.03142725270328454,0.1687993521492683,0,0,-0.3983054415322395,-0.258112562728404,0,0,728.4981684981685,765.5677655677656,915.8608058608058,544.3589743589744,-0.375244,0.107422,0.908936,2.138367,-3.244934,0.014954,1,4,1,1,2,75.000000
2023-08-31 16:11:22.038,,,,,,,,,,,,,,,,,,,,,,,,,,,,,,,,,,,,,,/muse/elements/blink
2023-08-31 16:11:22.537,,,,,,,,,,,,,,,,,,,,,,,,,,,,,,,,,,,,,,/muse/elements/blink
2023-08-31 16:11:22.636,0,0.3993744540123662,0.6249421573328044,0,0,0.1721489114670341,-0.04494636176738148,0,0,-0.2007996203067143,0.1639642175372173,0,0,0.07427138318381508,0.0317457723327841,0,0,-0.3330336040822335,-0.3526424326813902,0,1624.615384615385,794.1758241758242,809.8901098901099,726.8864468864469,581.8315018315019,-0.365967,0.106750,0.909729,1.241150,-4.949646,-1.764526,1,4,1,1,2,75.000000
2023-08-31 16:11:22.734,,,,,,,,,,,,,,,,,,,,,,,,,,,,,,,,,,,,,,/muse/elements/blink
2023-08-31 16:11:23.148,,,,,,,,,,,,,,,,,,,,,,,,,,,,,,,,,,,,,,/muse/elements/blink
2023-08-31 16:11:23.323,,,,,,,,,,,,,,,,,,,,,,,,,,,,,,,,,,,,,,/muse/elements/blink
2023-08-31 16:11:23.636,0,1.107957800570498,0.6249421573328044,0,0,-0.1146985676153583,-0.04494636176738148,0,0,0.0256080982382677,0.1639642175372173,0,0,-0.09406991572781997,0.0317457723327841,0,0,-0.6346575984307556,-0.3526424326813902,0,1140.695970695971,774.0293040293041,761.941391941392,1214.432234432235,529.047619047619,-0.372437,0.107483,0.912842,1.943970,-1.988831,1.069183,1,4,1,1,2,75.000000
2023-08-31 16:11:23.647,,,,,,,,,,,,,,,,,,,,,,,,,,,,,,,,,,,,,,/muse/elements/blink
2023-08-31 16:11:23.843,,,,,,,,,,,,,,,,,,,,,,,,,,,,,,,,,,,,,,/muse/elements/blink
2023-08-31 16:11:24.278,,,,,,,,,,,,,,,,,,,,,,,,,,,,,,,,,,,,,,/muse/elements/blink
2023-08-31 16:11:24.474,,,,,,,,,,,,,,,,,,,,,,,,,,,,,,,,,,,,,,/muse/elements/blink
2023-08-31 16:11:24.636,0,1.092867452819759,0.6249421573328044,0,0,-0.03435700220431706,-0.04494636176738148,0,0,-0.01805314115873114,0.1639642175372173,0,0,-0.05552162993836188,0.0317457723327841,0,0,-0.618620743639552,-0.3526424326813902,0,970.2564102564103,801.025641025641,787.7289377289378,936.4102564102565,582.6373626373627,-0.358948,0.121948,0.913025,1.457977,-3.327179,-0.665436,1,4,1,1,4,75.000000
2023-08-31 16:11:25.386,,,,,,,,,,,,,,,,,,,,,,,,,,,,,,,,,,,,,,/muse/elements/blink
2023-08-31 16:11:25.636,0,1.037332765773514,0.6883555149020212,0,0,0.6174003533540808,-0.2373857668986843,0,0,0.350378689499014,0.2026761862037824,0,0,0.3005370631710921,-0.04453820443783137,0,0,-0.1662251533710491,-0.3684504244528938,0,1327.655677655678,815.5311355311355,785.7142857142858,838.4981684981685,376.7399267399268,-0.358093,0.117737,0.920776,0.044861,-6.093597,-2.250519,1,4,1,1,2,75.000000
2023-08-31 16:11:25.669,,,,,,,,,,,,,,,,,,,,,,,,,,,,,,,,,,,,,,/muse/elements/blink
2023-08-31 16:11:26.302,,,,,,,,,,,,,,,,,,,,,,,,,,,,,,,,,,,,,,/muse/elements/blink
2023-08-31 16:11:26.637,0,0.750086750550449,0.2485041207416279,0,0,0.2289320656449964,-0.08215856852011023,0,0,0.2851190808183385,0.2771041207938101,0,0,-0.02025106187796908,-0.1125906562184191,0,0,-0.2310070275625083,-0.5573952459458918,0,1025.860805860806,803.040293040293,788.9377289377289,719.6336996336996,543.956043956044,-0.361328,0.100281,0.904114,1.525269,-3.080444,0.523376,1,4,1,1,2,75.000000
2023-08-31 16:11:26.994,,,,,,,,,,,,,,,,,,,,,,,,,,,,,,,,,,,,,,/muse/elements/blink
2023-08-31 16:11:27.233,,,,,,,,,,,,,,,,,,,,,,,,,,,,,,,,,,,,,,/muse/elements/blink
2023-08-31 16:11:27.636,0,0.6349403222621136,0.6321503106369019,0,0,-0.1818863781911915,0.1699615517480171,0,0,0.09248996280185735,0.1950218719569804,0,0,-0.2318378276426877,0.07093877224908901,0,0,-0.1229559129248078,-0.3864049680749319,0,1313.956043956044,800.6227106227107,816.7399267399268,1034.322344322344,619.7069597069598,-0.374268,0.083008,0.917480,1.816864,-3.872986,-0.605621,1,4,1,1,2,75.000000
2023-08-31 16:11:27.822,,,,,,,,,,,,,,,,,,,,,,,,,,,,,,,,,,,,,,/muse/elements/blink
2023-08-31 16:11:28.020,,,,,,,,,,,,,,,,,,,,,,,,,,,,,,,,,,,,,,/muse/elements/blink
2023-08-31 16:11:28.194,,,,,,,,,,,,,,,,,,,,,,,,,,,,,,,,,,,,,,/muse/elements/blink
2023-08-31 16:11:28.452,,,,,,,,,,,,,,,,,,,,,,,,,,,,,,,,,,,,,,/muse/elements/blink
2023-08-31 16:11:28.636,0,0.8862669365006519,0.9815928753631924,0,0,-0.1697037992366672,0.1732849484209201,0,0,0.01940656311585585,-0.08998713883785718,0,0,-0.03107789227601792,0.1545172757215081,0,0,-0.1837856767304233,-0.2349460411180218,0,57.61904761904762,819.96336996337,798.6080586080586,1047.216117216117,365.4578754578754,-0.372009,0.056702,0.916321,0.508423,-5.091705,0.291595,1,4,1,1,4,75.000000
2023-08-31 16:11:28.822,,,,,,,,,,,,,,,,,,,,,,,,,,,,,,,,,,,,,,/muse/elements/blink
2023-08-31 16:11:29.150,,,,,,,,,,,,,,,,,,,,,,,,,,,,,,,,,,,,,,/muse/elements/blink
2023-08-31 16:11:29.642,0,1.009005100839431,0.6113461859672219,0,0,0.3009822628761004,0.4722891144357544,0,0,0.3818525578458581,0.554283750461641,0,0,0.04589968682230851,0.1497190555947755,0,0,-0.2744996696940148,-0.1125346475580662,0,0,727.2893772893773,735.3479853479854,649.1208791208792,670.4761904761905,-0.349487,0.074036,0.926025,1.151428,-5.144043,-0.515900,1,2,1,1,4,75.000000
2023-08-31 16:11:29.762,,,,,,,,,,,,,,,,,,,,,,,,,,,,,,,,,,,,,,/muse/elements/blink
2023-08-31 16:11:30.135,,,,,,,,,,,,,,,,,,,,,,,,,,,,,,,,,,,,,,/muse/elements/blink
2023-08-31 16:11:30.352,,,,,,,,,,,,,,,,,,,,,,,,,,,,,,,,,,,,,,/muse/elements/blink
2023-08-31 16:11:30.635,0,0.5983548291100248,0.7847950308999211,0,0,0.2081874277410845,0.4631815097506384,0,0,0.2882329059490058,0.4062792151036524,0,0,0.01600506968939829,0.2751397050087298,0,0,-0.1873680923650608,-0.1050681888813391,0,0,826.8131868131868,811.9047619047619,500.8424908424909,666.8498168498169,-0.336914,0.069580,0.918152,2.198181,-4.687958,2.504730,1,4,1,1,2,75.000000
2023-08-31 16:11:30.745,,,,,,,,,,,,,,,,,,,,,,,,,,,,,,,,,,,,,,/muse/elements/blink
2023-08-31 16:11:30.963,,,,,,,,,,,,,,,,,,,,,,,,,,,,,,,,,,,,,,/muse/elements/blink
2023-08-31 16:11:31.158,,,,,,,,,,,,,,,,,,,,,,,,,,,,,,,,,,,,,,/muse/elements/blink
2023-08-31 16:11:31.644,0,0.4735760479990875,0.9077207948658641,0,0,-0.06062450005922607,0.5240783659736539,0,0,-0.1175315010159071,0.3942260956160542,0,0,-0.0762736025827679,0.3443966045247268,0,0,-0.2563372630891569,-0.1629731932896243,0,0,842.5274725274726,781.2820512820513,657.985347985348,433.956043956044,-0.392395,0.085083,0.897034,4.366455,-2.923431,-1.764526,1,4,1,1,4,55.000000
2023-08-31 16:11:32.395,,,,,,,,,,,,,,,,,,,,,,,,,,,,,,,,,,,,,,/muse/elements/blink
2023-08-31 16:11:32.636,0,1.147980646656374,0.4460040963148785,0,0,0.1532105498174076,0.03433555085638726,0,0,0.07268291063577947,0.2517078041944468,0,0,0.0193137962449662,0.1685697464816341,0,0,-0.2617898194094888,-0.09656944612375989,0,16.52014652014652,809.8901098901099,781.2820512820513,889.2673992673992,610.4395604395604,-0.385742,0.102173,0.921387,7.648773,-2.878571,-1.271057,1,4,1,1,4,55.000000
2023-08-31 16:11:32.988,,,,,,,,,,,,,,,,,,,,,,,,,,,,,,,,,,,,,,/muse/elements/blink
2023-08-31 16:11:33.448,,,,,,,,,,,,,,,,,,,,,,,,,,,,,,,,,,,,,,/muse/elements/blink
2023-08-31 16:11:33.603,,,,,,,,,,,,,,,,,,,,,,,,,,,,,,,,,,,,,,/muse/elements/blink
2023-08-31 16:11:33.635,0,0.9937279532120433,0.1467906899879985,0,0,0.1823864826080604,0.04239404765579677,0,0,0.1877352993702597,0.3445105331749644,0,0,0.1200114793193857,0.1477650332385284,0,0,-0.3604880330384327,-0.1431683466702179,0,1629.047619047619,800.6227106227107,795.7875457875458,981.941391941392,653.1501831501831,-0.377319,0.053040,0.914612,2.422485,-1.869202,-0.844879,1,4,1,1,4,55.000000
2023-08-31 16:11:34.635,0,0.330320820186412,0.147325822745396,0,0,0.1155041121666462,0.0466823637198209,0,0,0.3650944869255425,0.3494233687903712,0,0,0.0334535489380146,-0.001009947293591869,0,0,-0.3549277587193612,-0.1091357195319271,0,1624.615384615385,790.952380952381,774.8351648351648,602.3809523809524,948.901098901099,-0.380493,0.090576,0.910095,3.484192,-2.609406,-0.029907,1,4,1,1,4,55.000000
2023-08-31 16:11:35.635,0,0.6552282632600518,0.9065727306075584,0,0,0.6136295034480873,0.6383691230560132,0,0,0.4335819760844132,0.3246525564227623,0,0,-0.02823547063002487,0.01333934848661978,0,0,-0.5529898060817381,-0.06965225640341723,0,1585.128205128205,844.9450549450549,880.4029304029305,852.1978021978023,549.5970695970697,-0.370361,0.074646,0.914429,3.244934,-4.687958,-0.912170,1,2,1,1,4,55.000000
2023-08-31 16:11:36.217,,,,,,,,,,,,,,,,,,,,,,,,,,,,,,,,,,,,,,/muse/elements/blink
2023-08-31 16:11:36.643,0,0.8444208549662789,1.069991330174991,0,0,0.8074687393043828,0.7862718760173643,0,0,0.4214308492081256,0.3246525564227623,0,0,-0.02541911674073416,0.04151934349414356,0,0,-0.6251977287713092,-0.05643636404640174,0,271.5750915750916,842.5274725274726,811.0989010989011,794.1758241758242,635.0183150183151,-0.375000,0.081726,0.917175,0.097198,-2.639313,0.500946,1,2,1,1,4,55.000000
2023-08-31 16:11:36.653,,,,,,,,,,,,,,,,,,,,,,,,,,,,,,,,,,,,,,/muse/elements/blink
2023-08-31 16:11:36.978,,,,,,,,,,,,,,,,,,,,,,,,,,,,,,,,,,,,,,/muse/elements/jaw_clench
2023-08-31 16:11:37.261,,,,,,,,,,,,,,,,,,,,,,,,,,,,,,,,,,,,,,/muse/elements/blink
2023-08-31 16:11:37.459,,,,,,,,,,,,,,,,,,,,,,,,,,,,,,,,,,,,,,/muse/elements/blink
2023-08-31 16:11:37.635,0,0.6183631047138535,0.5810765470285008,0,0,-0.05780225604456752,-0.2226651685505311,0,0,0.2130494649499982,0.09672498493303187,0,0,0.04219256720311339,0.05545295406734243,0,0,-0.2185834765473419,0.006819858576278975,0,1094.761904761905,824.3956043956044,787.3260073260074,516.959706959707,495.2014652014652,-0.398071,0.073364,0.908630,3.043060,-4.344025,-1.188812,1,4,1,1,4,55.000000
2023-08-31 16:11:37.678,,,,,,,,,,,,,,,,,,,,,,,,,,,,,,,,,,,,,,/muse/elements/blink
2023-08-31 16:11:38.286,,,,,,,,,,,,,,,,,,,,,,,,,,,,,,,,,,,,,,/muse/elements/blink
2023-08-31 16:11:38.635,0,0.7810240279902173,0.4104773088258031,0,0,0.02551745652563148,-0.1214706696425588,0,0,0.2003871635132502,0.1428962301385807,0,0,-0.008036749485301264,0.0009198435982096134,0,0,-0.2463689075885575,0.02779566867099736,0,1620.18315018315,799.0109890109891,794.981684981685,620.5128205128206,551.2087912087912,-0.388855,0.026672,0.898438,-1.876678,-0.239258,-4.695435,1,4,1,1,4,55.000000
2023-08-31 16:11:38.896,,,,,,,,,,,,,,,,,,,,,,,,,,,,,,,,,,,,,,/muse/elements/blink
2023-08-31 16:11:39.395,,,,,,,,,,,,,,,,,,,,,,,,,,,,,,,,,,,,,,/muse/elements/blink
2023-08-31 16:11:39.644,0,0.6839364765750248,0.1160452546658695,0,0,-0.051639584196908,-0.0717286144290905,0,0,-0.002292221414340084,-0.03728963780346183,0,0,-0.09552255288809423,0.07335164664195379,0,0,-0.1153162731597487,-0.05273440980892583,0,0,799.4139194139194,799.0109890109891,541.5384615384615,406.959706959707,-0.398743,0.065552,0.900757,3.394470,-2.549591,0.530853,1,4,1,1,4,55.000000
2023-08-31 16:11:39.786,,,,,,,,,,,,,,,,,,,,,,,,,,,,,,,,,,,,,,/muse/elements/blink
2023-08-31 16:11:40.026,,,,,,,,,,,,,,,,,,,,,,,,,,,,,,,,,,,,,,/muse/elements/blink
2023-08-31 16:11:40.397,,,,,,,,,,,,,,,,,,,,,,,,,,,,,,,,,,,,,,/muse/elements/blink
2023-08-31 16:11:40.635,0,0.4207850666977868,0.6299172773162146,0,0,0.0116456761517257,-0.006572833796120596,0,0,0.3476710118043669,0.3079759056780909,0,0,-0.1236614672881878,0.2489699439267298,0,0,-0.07939079280449965,-0.1488659876035181,0,1583.919413919414,735.7509157509157,744.2124542124542,616.4835164835165,440,-0.411621,0.121826,0.889038,5.719757,-2.549591,7.977753,1,4,1,1,4,55.000000
2023-08-31 16:11:40.746,,,,,,,,,,,,,,,,,,,,,,,,,,,,,,,,,,,,,,/muse/elements/blink
2023-08-31 16:11:41.635,0,0.4225443599541419,0.9917433255328995,0,0,0.02126680180080738,0.1423645899993238,0,0,0.3094315852082238,0.2728288091392016,0,0,-0.04019225253760062,0.1990042848239851,0,0,-0.2398862816502329,-0.2918350313203065,0,1172.527472527473,828.4249084249085,856.6300366300367,695.4578754578755,474.6520146520147,-0.406555,0.116211,0.895325,1.420593,-2.616882,-2.437439,1,4,1,1,2,75.000000
2023-08-31 16:11:42.229,,,,,,,,,,,,,,,,,,,,,,,,,,,,,,,,,,,,,,/muse/elements/blink
2023-08-31 16:11:42.535,,,,,,,,,,,,,,,,,,,,,,,,,,,,,,,,,,,,,,/muse/elements/blink
2023-08-31 16:11:42.635,0,0.8626851207156478,1.069367631450302,0,0,0.4228558516013596,0.2121554770874506,0,0,0.3171401264165516,0.2728288091392016,0,0,-0.1274944478209275,0.1910486302134241,0,0,-0.2873772575851899,-0.319314583909572,0,844.5421245421246,783.2967032967033,796.996336996337,409.3772893772894,527.8388278388279,-0.393066,0.106079,0.899841,3.446808,-0.859833,4.777679,1,4,1,1,2,75.000000
2023-08-31 16:11:42.927,,,,,,,,,,,,,,,,,,,,,,,,,,,,,,,,,,,,,,/muse/elements/blink
2023-08-31 16:11:43.146,,,,,,,,,,,,,,,,,,,,,,,,,,,,,,,,,,,,,,/muse/elements/blink
2023-08-31 16:11:43.635,0,0.8626851207156478,0.9885209209011938,0,0,0.4228558516013596,-0.1339089515634329,0,0,0.3171401264165516,0.3613515566017533,0,0,-0.1274944478209275,0.0003834751891555348,0,0,-0.2873772575851899,-0.3197726608652319,0,609.2307692307693,805.4578754578755,818.7545787545788,534.6886446886447,486.3369963369964,-0.379822,0.105347,0.902344,3.035583,-3.140259,0.785065,1,4,1,1,4,75.000000
2023-08-31 16:11:43.668,,,,,,,,,,,,,,,,,,,,,,,,,,,,,,,,,,,,,,/muse/elements/blink
2023-08-31 16:11:44.369,,,,,,,,,,,,,,,,,,,,,,,,,,,,,,,,,,,,,,/muse/elements/blink
2023-08-31 16:11:44.566,,,,,,,,,,,,,,,,,,,,,,,,,,,,,,,,,,,,,,/muse/elements/blink
2023-08-31 16:11:44.643,0,1.131199454867349,1.010079805183117,0,0,0.2106742135517235,-0.1394178342478491,0,0,0.1302831690627697,0.2446644392872237,0,0,-0.05408197202679372,0.1010767045033986,0,0,-0.3396586476854317,-0.4122890808891913,0,253.8461538461538,813.5164835164835,789.7435897435897,609.6336996336996,570.5494505494505,-0.378845,0.092346,0.910706,3.431854,-2.758942,-2.138367,1,4,1,1,2,75.000000
2023-08-31 16:11:44.894,,,,,,,,,,,,,,,,,,,,,,,,,,,,,,,,,,,,,,/muse/elements/blink
2023-08-31 16:11:45.350,,,,,,,,,,,,,,,,,,,,,,,,,,,,,,,,,,,,,,/muse/elements/blink
2023-08-31 16:11:45.589,,,,,,,,,,,,,,,,,,,,,,,,,,,,,,,,,,,,,,/muse/elements/blink
2023-08-31 16:11:45.645,0,0.7572200640881925,0.635888506668978,0,0,0.2177709467782228,-0.1963755712856737,0,0,0.2404840960430429,0.08514390067997862,0,0,0.01154147589606617,0.1229748530770691,0,0,-0.1890576886509817,-0.2377744269584415,0,1596.410256410256,801.025641025641,788.1318681318681,1191.868131868132,475.4578754578754,-0.366211,0.110840,0.912598,3.147736,-3.544006,-0.239258,1,4,1,1,2,75.000000
2023-08-31 16:11:46.112,,,,,,,,,,,,,,,,,,,,,,,,,,,,,,,,,,,,,,/muse/elements/blink
2023-08-31 16:11:46.591,,,,,,,,,,,,,,,,,,,,,,,,,,,,,,,,,,,,,,/muse/elements/blink
2023-08-31 16:11:46.643,0,1.042019671455475,0.1684423304204104,0,0,0.166885071924723,-0.1794164967361956,0,0,0.3934210132232137,-0.1163118702548777,0,0,-0.08978693147641979,0.01013879201494952,0,0,-0.1544413474032308,-0.2595667585387872,0,0,791.7582417582418,831.2454212454213,996.8498168498169,568.9377289377289,-0.366760,0.102539,0.907654,2.213135,-2.205658,-1.443024,1,4,1,1,2,75.000000
2023-08-31 16:11:47.004,,,,,,,,,,,,,,,,,,,,,,,,,,,,,,,,,,,,,,/muse/elements/blink
2023-08-31 16:11:47.617,,,,,,,,,,,,,,,,,,,,,,,,,,,,,,,,,,,,,,/muse/elements/blink
2023-08-31 16:11:47.635,0,1.278530510138651,0.303548666387161,0,0,0.1111074057348509,-0.1058939675144203,0,0,0.2320386387432577,-0.1163118702548777,0,0,0.001813509898498979,0.0422588466083375,0,0,-0.2004283652999713,-0.2999053383060146,0,1624.615384615385,810.6959706959707,830.4395604395604,674.5054945054945,379.96336996337,-0.371216,0.095825,0.912842,3.065491,-3.551483,-1.614990,1,4,1,1,2,75.000000
2023-08-31 16:11:48.030,,,,,,,,,,,,,,,,,,,,,,,,,,,,,,,,,,,,,,/muse/elements/blink
2023-08-31 16:11:48.226,,,,,,,,,,,,,,,,,,,,,,,,,,,,,,,,,,,,,,/muse/elements/blink
2023-08-31 16:11:48.533,,,,,,,,,,,,,,,,,,,,,,,,,,,,,,,,,,,,,,/muse/elements/blink
2023-08-31 16:11:48.635,0,0.8139228163245015,1.19757792642416,0,0,0.1232898048977466,0.5410759791476631,0,0,0.3196902043388942,0.5127575753346409,0,0,-0.0001512625127290327,0.28107223507851,0,0,-0.1278304117222444,-0.06458684715380937,0,0,754.6886446886447,857.032967032967,1277.289377289377,534.2857142857143,-0.385620,0.106506,0.907654,3.461761,-4.508514,-0.912170,1,4,1,1,2,75.000000
2023-08-31 16:11:49.634,0,0.6136858442478351,1.328476382569502,0,0,0.08099412482032084,0.6912718108959733,0,0,0.2872960166843911,0.5021235822400612,0,0,-0.07492140084095773,0.3437053494991789,0,0,-0.1405007728212465,-0.005780347809587595,0,1624.615384615385,821.5750915750916,835.6776556776557,537.9120879120879,593.919413919414,-0.372192,0.104065,0.909241,2.542114,-3.147736,-3.132782,1,2,1,1,4,75.000000
2023-08-31 16:11:50.488,,,,,,,,,,,,,,,,,,,,,,,,,,,,,,,,,,,,,,/muse/elements/blink
2023-08-31 16:11:50.635,0,0.6303672189762911,1.328476382569502,0,0,0.1527395524733899,0.6912718108959733,0,0,0.3306344551945746,0.5021235822400612,0,0,0.2803341827016388,0.3437053494991789,0,0,-0.5036799233961987,-0.005780347809587595,0,1625.018315018315,814.3223443223443,775.2380952380953,711.1721611721612,456.5201465201465,-0.368103,0.108032,0.913025,4.844971,-4.463654,-4.747772,1,4,1,1,2,75.000000
2023-08-31 16:11:50.752,,,,,,,,,,,,,,,,,,,,,,,,,,,,,,,,,,,,,,/muse/elements/blink
2023-08-31 16:11:51.078,,,,,,,,,,,,,,,,,,,,,,,,,,,,,,,,,,,,,,/muse/elements/blink
2023-08-31 16:11:51.361,,,,,,,,,,,,,,,,,,,,,,,,,,,,,,,,,,,,,,/muse/elements/blink
2023-08-31 16:11:51.635,0,0.6628797399578416,0.702525745564111,0,0,0.1204204143806255,0.1030460161849801,0,0,0.5013878532759182,0.2369647279737354,0,0,0.1212697362199667,0.1682537377917908,0,0,-0.4745412830268019,-0.2182549219511189,0,817.1428571428571,798.2051282051282,776.4468864468864,1073.003663003663,522.1978021978022,-0.400330,0.111328,0.897461,1.099091,-2.564545,2.968292,1,4,1,1,2,75.000000
2023-08-31 16:11:51.773,,,,,,,,,,,,,,,,,,,,,,,,,,,,,,,,,,,,,,/muse/elements/blink
2023-08-31 16:11:52.635,0,0.4461963159457725,0.2541555120238842,0,0,-0.108810796432828,0.05061549772464055,0,0,0.3168520110538299,0.4944214508545209,0,0,0.0621658177249415,0.2637935236839008,0,0,-0.3192745365798643,-0.07298049830166377,0,0,804.2490842490843,796.5934065934066,500.8424908424909,634.2124542124542,-0.362183,0.108276,0.924622,1.906586,-3.125305,0.725250,1,4,1,1,4,65.000000
2023-08-31 16:11:52.817,,,,,,,,,,,,,,,,,,,,,,,,,,,,,,,,,,,,,,/muse/elements/blink
2023-08-31 16:11:53.273,,,,,,,,,,,,,,,,,,,,,,,,,,,,,,,,,,,,,,/muse/elements/blink
2023-08-31 16:11:53.635,0,0.07606573816956881,0.01769339457518921,0,0,0.1808424854118078,-0.1279224803270646,0,0,0.5327864457891746,0.4743517498619683,0,0,-0.03482953465703747,0.05943602189712205,0,0,-0.1953777044545029,-0.1533625847371167,0,1625.824175824176,804.6520146520147,794.1758241758242,564.5054945054945,505.6776556776557,-0.375183,0.112976,0.898743,1.009369,0.014954,-1.308441,1,4,1,1,4,65.000000
2023-08-31 16:11:53.815,,,,,,,,,,,,,,,,,,,,,,,,,,,,,,,,,,,,,,/muse/elements/blink
2023-08-31 16:11:54.032,,,,,,,,,,,,,,,,,,,,,,,,,,,,,,,,,,,,,,/muse/elements/blink
2023-08-31 16:11:54.313,,,,,,,,,,,,,,,,,,,,,,,,,,,,,,,,,,,,,,/muse/elements/blink
2023-08-31 16:11:54.488,,,,,,,,,,,,,,,,,,,,,,,,,,,,,,,,,,,,,,/muse/elements/blink
2023-08-31 16:11:54.635,0,0.3321561583606268,0.3557371977007683,0,0,0.4604563450149763,-0.01987847401289466,0,0,0.5246116665627065,0.1075926490798491,0,0,-0.007915720488604019,-0.06990129786023273,0,0,-0.3233989737884202,-0.2851628219922364,0,1054.468864468864,809.0842490842491,800.6227106227107,474.6520146520147,649.92673992674,-0.363525,0.089600,0.906921,0.657959,-2.624359,2.272949,1,4,1,1,4,65.000000
2023-08-31 16:11:55.139,,,,,,,,,,,,,,,,,,,,,,,,,,,,,,,,,,,,,,/muse/elements/blink
2023-08-31 16:11:55.620,,,,,,,,,,,,,,,,,,,,,,,,,,,,,,,,,,,,,,/muse/elements/blink
2023-08-31 16:11:55.635,0,0.3484815858257917,0.4883588077822181,0,0,0.2701046085147325,0.235219971438435,0,0,0.4444457991736758,0.4553638284654962,0,0,-0.02526822416331757,-0.024002513366164,0,0,-0.451671710082326,-0.277061686945258,0,1472.307692307692,796.5934065934066,801.4285714285714,649.92673992674,845.7509157509157,-0.337769,0.083862,0.916687,1.375732,-5.024414,-1.899109,1,4,1,1,4,65.000000
2023-08-31 16:11:55.966,,,,,,,,,,,,,,,,,,,,,,,,,,,,,,,,,,,,,,/muse/elements/blink
2023-08-31 16:11:56.506,,,,,,,,,,,,,,,,,,,,,,,,,,,,,,,,,,,,,,/muse/elements/blink
2023-08-31 16:11:56.635,0,0.1808367190449527,0.4338487756026144,0,0,0.07518503982701052,0.1077748626712536,0,0,0.3990211922580275,0.433461853327046,0,0,0.06306211683543653,0.1096792321841536,0,0,-0.4490130715873183,-0.1152619890464708,0,1625.018315018315,775.6410256410256,777.2527472527473,967.032967032967,417.4358974358975,-0.345703,0.076294,0.922729,1.046753,-5.001984,2.429962,1,4,1,1,2,65.000000
2023-08-31 16:11:56.944,,,,,,,,,,,,,,,,,,,,,,,,,,,,,,,,,,,,,,/muse/elements/blink
2023-08-31 16:11:57.162,,,,,,,,,,,,,,,,,,,,,,,,,,,,,,,,,,,,,,/muse/elements/blink
2023-08-31 16:11:57.552,,,,,,,,,,,,,,,,,,,,,,,,,,,,,,,,,,,,,,/muse/elements/blink
2023-08-31 16:11:57.634,0,0.1708173363230095,0.8959608782988896,0,0,-0.3260111096927291,0.05695195510893248,0,0,-0.02993462975580908,0.07157389362639226,0,0,0.1067757928526794,0.2545917240366525,0,0,-0.405532183045292,-0.1124129586364081,0,0,826.4102564102565,833.6630036630037,636.2271062271062,558.8644688644689,-0.257446,0.065857,0.953979,1.876678,-6.706696,-1.547699,1,4,1,1,2,65.000000
2023-08-31 16:11:58.159,,,,,,,,,,,,,,,,,,,,,,,,,,,,,,,,,,,,,,/muse/elements/blink
2023-08-31 16:11:58.377,,,,,,,,,,,,,,,,,,,,,,,,,,,,,,,,,,,,,,/muse/elements/blink
2023-08-31 16:11:58.635,0,0.9208694846209177,1.043503555955929,0,0,0.2355085751877531,0.01486760367593819,0,0,0.5100388038624456,-0.0956411732917736,0,0,0.05165809822266459,0.2961276767191908,0,0,-0.2293585672314447,-0.1089401466457663,0,1221.282051282051,815.1282051282052,789.7435897435897,910.6227106227107,941.2454212454213,-0.339905,0.096130,0.929932,-3.596344,3.521576,5.480499,1,4,1,1,2,65.000000
2023-08-31 16:11:59.008,,,,,,,,,,,,,,,,,,,,,,,,,,,,,,,,,,,,,,/muse/elements/blink
2023-08-31 16:11:59.635,0,1.040831656623014,0.7955295243886806,0,0,0.4712309597818035,0.3615293672997914,0,0,0.5170284780804282,0.4217783022808775,0,0,0.07058660547549095,0.004129695760302738,0,0,-0.2915715976900645,-0.4113123188225933,0,0,728.0952380952381,796.1904761904763,835.2747252747253,828.8278388278388,-0.280396,0.108948,0.941284,1.472931,-4.687958,-1.510315,1,4,1,1,2,65.000000
2023-08-31 16:11:59.812,,,,,,,,,,,,,,,,,,,,,,,,,,,,,,,,,,,,,,/muse/elements/blink
2023-08-31 16:12:00.115,,,,,,,,,,,,,,,,,,,,,,,,,,,,,,,,,,,,,,/muse/elements/blink
2023-08-31 16:12:00.310,,,,,,,,,,,,,,,,,,,,,,,,,,,,,,,,,,,,,,/muse/elements/blink
2023-08-31 16:12:00.635,0,1.052872558213475,1.154756301731584,0,0,0.5289688207099009,0.3699028625449492,0,0,0.3788515719857599,0.4228150475651464,0,0,0.001638265165002668,0.09757034897915519,0,0,-0.4115434116881087,-0.2746532519287639,0,1624.615384615385,794.981684981685,817.5457875457876,825.2014652014652,902.1611721611722,-0.308044,0.117615,0.928894,4.007568,-1.293488,-2.549591,1,4,1,1,2,65.000000
2023-08-31 16:12:00.832,,,,,,,,,,,,,,,,,,,,,,,,,,,,,,,,,,,,,,/muse/elements/blink
2023-08-31 16:12:01.376,,,,,,,,,,,,,,,,,,,,,,,,,,,,,,,,,,,,,,/muse/elements/blink
2023-08-31 16:12:01.635,0,1.052872558213475,1.095217934440081,0,0,0.5289688207099009,-0.222034847257976,0,0,0.3788515719857599,-0.06497893196325968,0,0,0.001638265165002668,-0.0597322299053888,0,0,-0.4115434116881087,-0.2340260316252361,0,1622.600732600733,812.7106227106227,845.7509157509157,809.4871794871796,1082.673992673993,-0.298218,0.112305,0.942505,6.168365,-5.697327,-6.153412,1,4,1,1,2,65.000000
2023-08-31 16:12:01.726,,,,,,,,,,,,,,,,,,,,,,,,,,,,,,,,,,,,,,/muse/elements/blink
2023-08-31 16:12:02.053,,,,,,,,,,,,,,,,,,,,,,,,,,,,,,,,,,,,,,/muse/elements/blink
2023-08-31 16:12:02.336,,,,,,,,,,,,,,,,,,,,,,,,,,,,,,,,,,,,,,/muse/elements/blink
2023-08-31 16:12:02.635,0,0.746935236419814,1.050893181015047,0,0,-0.1647515196416943,-0.271373218071377,0,0,0.3453416788301766,-0.2001460173783877,0,0,0.1261040582496986,-0.03266026721174197,0,0,-0.2746855957703648,-0.2496060530556911,0,1624.615384615385,828.8278388278388,765.9706959706959,1126.190476190476,936.4102564102565,-0.316589,0.098511,0.931396,3.207550,-4.134674,-1.622467,1,4,1,1,4,100.000000
2023-08-31 16:12:02.749,,,,,,,,,,,,,,,,,,,,,,,,,,,,,,,,,,,,,,/muse/elements/jaw_clench
2023-08-31 16:12:03.635,0,0.7179412396235991,1.103821313205462,0,0,-0.3349135874603351,-0.06597924674785162,0,0,0.2999203710712726,0.3985074793429336,0,0,0.1740066238488074,0.3270880222741866,0,0,-0.3248025703339967,-0.2144203575096705,0,1626.227106227106,807.8754578754579,814.7252747252747,956.1538461538462,1056.483516483516,-0.327637,0.111389,0.952332,1.704712,1.143951,-2.901001,1,4,1,1,4,100.000000
2023-08-31 16:12:03.965,,,,,,,,,,,,,,,,,,,,,,,,,,,,,,,,,,,,,,/muse/elements/blink
2023-08-31 16:12:04.270,,,,,,,,,,,,,,,,,,,,,,,,,,,,,,,,,,,,,,/muse/elements/blink
2023-08-31 16:12:04.487,,,,,,,,,,,,,,,,,,,,,,,,,,,,,,,,,,,,,,/muse/elements/blink
2023-08-31 16:12:04.635,0,0.668197974590204,1.103821313205462,0,0,-0.3455599802577186,-0.06597924674785162,0,0,0.2804453190809328,0.3985074793429336,0,0,0.2206661939063599,0.3270880222741866,0,0,-0.3643946188123194,-0.2144203575096705,0,0,819.5604395604396,824.7985347985348,306.6300366300366,1031.904761904762,-0.393311,0.106567,0.911560,1.891632,4.486084,4.284210,1,4,1,1,4,100.000000
2023-08-31 16:12:04.791,,,,,,,,,,,,,,,,,,,,,,,,,,,,,,,,,,,,,,/muse/elements/blink
2023-08-31 16:12:05.395,,,,,,,,,,,,,,,,,,,,,,,,,,,,,,,,,,,,,,/muse/elements/blink
2023-08-31 16:12:05.635,0,1.172272316788563,1.050081637415419,0,0,0.7007198067023862,0.1028676853057828,0,0,0.3738651300518399,0.3902719716828614,0,0,0.09927322692071271,0.1357249589220056,0,0,-0.3241984858015982,0.07471721862551453,0,0,820.3663003663004,780.8791208791209,1294.615384615385,947.2893772893773,-0.387390,0.091858,0.902405,1.674805,2.669220,-8.643188,1,4,1,1,4,100.000000
2023-08-31 16:12:05.983,,,,,,,,,,,,,,,,,,,,,,,,,,,,,,,,,,,,,,/muse/elements/blink
2023-08-31 16:12:05.983,,,,,,,,,,,,,,,,,,,,,,,,,,,,,,,,,,,,,,/muse/elements/jaw_clench
2023-08-31 16:12:06.646,0,0.9405784012026223,1.043665959681948,0,0,0.4595520750243132,0.4062480743991525,0,0,0.3343061921341873,0.4923048038917334,0,0,0.08364875715729057,0.3132588865156504,0,0,-0.1930007959904589,-0.2527883277391649,0,0,809.4871794871796,763.956043956044,804.2490842490843,1233.772893772894,-0.379700,0.104309,0.905334,2.796326,-4.358978,-2.347717,1,4,1,1,4,100.000000
2023-08-31 16:12:06.917,,,,,,,,,,,,,,,,,,,,,,,,,,,,,,,,,,,,,,/muse/elements/blink
2023-08-31 16:12:07.439,,,,,,,,,,,,,,,,,,,,,,,,,,,,,,,,,,,,,,/muse/elements/jaw_clench
2023-08-31 16:12:07.614,,,,,,,,,,,,,,,,,,,,,,,,,,,,,,,,,,,,,,/muse/elements/jaw_clench
2023-08-31 16:12:07.635,0,0.4194976140644703,0.5892541739141473,0,0,-0.03745873163719278,0.2447529595853558,0,0,0.1383147241646325,0.5394060436946471,0,0,0.06222447593659667,0.2863535374384603,0,0,-0.2699950282090086,-0.1008930335063995,0,0,799.4139194139194,793.7728937728938,626.5567765567765,951.3186813186813,-0.380249,0.101440,0.903809,1.315918,-3.409424,-1.637421,1,4,1,1,4,100.000000
2023-08-31 16:12:07.702,,,,,,,,,,,,,,,,,,,,,,,,,,,,,,,,,,,,,,/muse/elements/blink
2023-08-31 16:12:07.810,,,,,,,,,,,,,,,,,,,,,,,,,,,,,,,,,,,,,,/muse/elements/jaw_clench
2023-08-31 16:12:08.137,,,,,,,,,,,,,,,,,,,,,,,,,,,,,,,,,,,,,,/muse/elements/blink
2023-08-31 16:12:08.635,0,-0.3253678805005165,0.4576882355765681,0,0,-0.1074738815995554,-0.1220682191306145,0,0,0.230799301236594,0.348396658995566,0,0,-0.04521330710751301,0.2153754127222572,0,0,-0.3531931592344628,-0.0433508747820575,0,53.58974358974359,793.3699633699634,787.3260073260074,1015.384615384615,945.2747252747253,-0.370422,0.110901,0.910095,2.684174,-3.618774,-0.747681,1,4,1,1,4,100.000000
2023-08-31 16:12:08.942,,,,,,,,,,,,,,,,,,,,,,,,,,,,,,,,,,,,,,/muse/elements/blink
2023-08-31 16:12:09.250,,,,,,,,,,,,,,,,,,,,,,,,,,,,,,,,,,,,,,/muse/elements/jaw_clench
2023-08-31 16:12:09.534,,,,,,,,,,,,,,,,,,,,,,,,,,,,,,,,,,,,,,/muse/elements/jaw_clench
2023-08-31 16:12:09.635,0,0.3593282406689795,0.465326780191309,0,0,-0.08255085998784112,0.004398850747219736,0,0,0.1707944210266183,0.1681081907054034,0,0,-0.04617947309026447,0.1623176130510939,0,0,-0.1462975000824509,-0.2596651036334778,0,1359.89010989011,792.967032967033,810.6959706959707,569.7435897435897,904.1758241758242,-0.355347,0.118652,0.910950,1.629944,-4.508514,6.684265,1,4,1,1,4,100.000000
2023-08-31 16:12:10.635,0,0.6222981274580168,0.6165052242530641,0,0,-0.1236215183337523,-0.09610845522862699,0,0,-0.4203660812142661,-0.1070435144859022,0,0,-0.05926913617608883,0.1553516477469566,0,0,-0.1080781312439873,-0.2042999613852897,0,159.5604395604396,826.007326007326,812.7106227106227,625.3479853479854,792.5641025641025,-0.326843,0.096436,0.924683,3.177643,-4.037476,0.037384,1,4,1,1,4,100.000000
2023-08-31 16:12:10.665,,,,,,,,,,,,,,,,,,,,,,,,,,,,,,,,,,,,,,/muse/elements/blink
2023-08-31 16:12:11.297,,,,,,,,,,,,,,,,,,,,,,,,,,,,,,,,,,,,,,/muse/elements/blink
2023-08-31 16:12:11.635,0,0.8034962173175364,0.4358564716164156,0,0,0.1114702492272447,-0.1148450620280211,0,0,0.461080730369579,-0.01565005712246611,0,0,-0.02188344958093294,0.1945024858086893,0,0,-0.4666266066319419,-0.1721240987993459,0,0,779.6703296703297,821.978021978022,850.1831501831502,769.1941391941392,-0.330505,0.091675,0.935425,-1.076660,-3.656158,-7.454376,1,4,1,1,2,100.000000
2023-08-31 16:12:11.799,,,,,,,,,,,,,,,,,,,,,,,,,,,,,,,,,,,,,,/muse/elements/blink
2023-08-31 16:12:12.170,,,,,,,,,,,,,,,,,,,,,,,,,,,,,,,,,,,,,,/muse/elements/blink
2023-08-31 16:12:12.640,0,0.9531789283515421,0.4313244506102538,0,0,0.002160423940863998,-0.1247030375841974,0,0,0.256577798769602,-0.01842491073347046,0,0,0.05954394152767288,0.2162703735799086,0,0,-0.562734793790564,-0.1664420539390632,0,0,782.0879120879121,779.6703296703297,705.934065934066,528.2417582417582,-0.313293,0.094177,0.929565,2.930908,-1.727142,0.560760,1,4,1,1,4,60.000000
2023-08-31 16:12:12.780,,,,,,,,,,,,,,,,,,,,,,,,,,,,,,,,,,,,,,/muse/elements/blink
2023-08-31 16:12:13.193,,,,,,,,,,,,,,,,,,,,,,,,,,,,,,,,,,,,,,/muse/elements/blink
2023-08-31 16:12:13.610,,,,,,,,,,,,,,,,,,,,,,,,,,,,,,,,,,,,,,/muse/elements/blink
2023-08-31 16:12:13.634,0,0.9531789283515421,0.4313244506102538,0,0,0.002160423940863998,-0.1247030375841974,0,0,0.256577798769602,-0.01842491073347046,0,0,0.05954394152767288,0.2162703735799086,0,0,-0.562734793790564,-0.1664420539390632,0,1608.901098901099,786.1172161172161,831.2454212454213,791.7582417582418,583.4432234432235,-0.339905,0.101746,0.921387,2.714081,-1.151428,-2.190704,1,4,1,1,2,60.000000
2023-08-31 16:12:14.004,,,,,,,,,,,,,,,,,,,,,,,,,,,,,,,,,,,,,,/muse/elements/blink
2023-08-31 16:12:14.249,,,,,,,,,,,,,,,,,,,,,,,,,,,,,,,,,,,,,,/muse/elements/blink
2023-08-31 16:12:14.635,0,1.18467996645415,0.4313244506102538,0,0,0.817986765120889,-0.1247030375841974,0,0,0.5658946965341194,-0.01842491073347046,0,0,0.2802225775014082,0.2162703735799086,0,0,-0.2673218358446874,-0.1664420539390632,0,36.26373626373626,813.919413919414,768.3882783882784,868.3150183150184,640.6593406593407,-0.373474,0.123596,0.906311,0.740204,-4.800110,2.086029,1,4,1,1,4,60.000000
2023-08-31 16:12:14.751,,,,,,,,,,,,,,,,,,,,,,,,,,,,,,,,,,,,,,/muse/elements/blink
2023-08-31 16:12:14.839,,,,,,,,,,,,,,,,,,,,,,,,,,,,,,,,,,,,,,/muse/elements/jaw_clench
2023-08-31 16:12:15.121,,,,,,,,,,,,,,,,,,,,,,,,,,,,,,,,,,,,,,/muse/elements/jaw_clench
2023-08-31 16:12:15.473,,,,,,,,,,,,,,,,,,,,,,,,,,,,,,,,,,,,,,/muse/elements/blink
2023-08-31 16:12:15.628,,,,,,,,,,,,,,,,,,,,,,,,,,,,,,,,,,,,,,/muse/elements/blink
2023-08-31 16:12:15.639,0,1.003845973553614,0.8092381609115231,0,0,0.4842868507049964,0.2184405463862393,0,0,0.5723586466615225,0.2127824982868753,0,0,0.1533629704545214,0.2739920911633352,0,0,-0.3168094478761808,-0.159118190242237,0,1624.615384615385,809.8901098901099,776.4468864468864,767.5824175824176,615.6776556776557,-0.346436,0.118835,0.923706,2.153320,-2.609406,1.143951,1,4,1,1,2,60.000000
2023-08-31 16:12:15.955,,,,,,,,,,,,,,,,,,,,,,,,,,,,,,,,,,,,,,/muse/elements/blink
2023-08-31 16:12:16.326,,,,,,,,,,,,,,,,,,,,,,,,,,,,,,,,,,,,,,/muse/elements/blink
2023-08-31 16:12:16.634,0,0.7162097759802645,0.6948812178881051,0,0,0.0611248462269551,0.02826334475987768,0,0,0.3156587502090928,0.302275313677319,0,0,0.1560604268297412,0.1703165954819259,0,0,-0.2930019830497411,-0.1751163175855187,0,0,803.040293040293,785.7142857142858,448.4615384615385,510.9157509157509,-0.322998,0.098877,0.926758,0.463562,-0.979462,-0.844879,1,4,1,1,4,60.000000
2023-08-31 16:12:17.049,,,,,,,,,,,,,,,,,,,,,,,,,,,,,,,,,,,,,,/muse/elements/blink
2023-08-31 16:12:17.635,0,0.6233297748412137,0.4881524855602649,0,0,-0.2308208962253496,-0.1481084437659254,0,0,0.3215983957684226,0.21910763521777,0,0,-0.1080392327211026,0.1324123204890387,0,0,-0.2775792499813806,-0.103398471468356,0,1624.615384615385,813.5164835164835,805.8608058608058,562.893772893773,606.8131868131868,-0.329163,0.100952,0.938538,3.678589,-0.119629,1.824341,1,4,1,1,2,60.000000
2023-08-31 16:12:17.880,,,,,,,,,,,,,,,,,,,,,,,,,,,,,,,,,,,,,,/muse/elements/blink
2023-08-31 16:12:18.600,,,,,,,,,,,,,,,,,,,,,,,,,,,,,,,,,,,,,,/muse/elements/blink
2023-08-31 16:12:18.635,0,0.1865536768793964,0.2159090962151579,0,0,0.135755846929012,0.01913672450101403,0,0,0.3044848530923155,0.319584194034552,0,0,-0.1168506805386114,0.1889803377260353,0,0,-0.4090195398988274,0.0006698131763341485,0,10.07326007326007,796.1904761904763,814.7252747252747,747.8388278388279,724.8717948717949,-0.347473,0.103210,0.910339,0.538330,-4.530945,-1.390686,1,4,1,1,4,60.000000
2023-08-31 16:12:19.101,,,,,,,,,,,,,,,,,,,,,,,,,,,,,,,,,,,,,,/muse/elements/blink
2023-08-31 16:12:19.626,,,,,,,,,,,,,,,,,,,,,,,,,,,,,,,,,,,,,,/muse/elements/blink
2023-08-31 16:12:19.637,0,0.8518288903849396,0.4758755811321614,0,0,0.1013616183362586,-0.08200275215616441,0,0,0.1750330237653492,0.3505890832863218,0,0,0.02893834310472132,0.2370229989117714,0,0,-0.5574096924732425,0.05814006607755397,0,440.8058608058608,804.2490842490843,790.952380952381,750.6593406593407,519.7802197802198,-0.352051,0.110962,0.916565,2.818756,-5.151520,-2.444916,1,4,1,1,2,60.000000
2023-08-31 16:12:19.997,,,,,,,,,,,,,,,,,,,,,,,,,,,,,,,,,,,,,,/muse/elements/blink
2023-08-31 16:12:20.237,,,,,,,,,,,,,,,,,,,,,,,,,,,,,,,,,,,,,,/muse/elements/blink
2023-08-31 16:12:20.500,,,,,,,,,,,,,,,,,,,,,,,,,,,,,,,,,,,,,,/muse/elements/blink
2023-08-31 16:12:20.634,0,1.158689742618823,0.8220092978874257,0,0,0.4885610104822315,0.1655123360485731,0,0,0.5611040332173882,0.1994210609182168,0,0,0.06054636965169225,0.220701113665248,0,0,-0.3604251450588828,-0.1873764242536778,0,1624.615384615385,808.2783882783883,786.1172161172161,950.1098901098901,531.8681318681319,-0.338684,0.063232,0.935120,0.336456,-2.998199,4.426270,1,4,1,1,2,60.000000
2023-08-31 16:12:21.021,,,,,,,,,,,,,,,,,,,,,,,,,,,,,,,,,,,,,,/muse/elements/blink
2023-08-31 16:12:21.328,,,,,,,,,,,,,,,,,,,,,,,,,,,,,,,,,,,,,,/muse/elements/blink
2023-08-31 16:12:21.548,,,,,,,,,,,,,,,,,,,,,,,,,,,,,,,,,,,,,,/muse/elements/blink
2023-08-31 16:12:21.635,0,1.308920309811441,1.028982485473606,0,0,0.9911395593485087,0.3650314063028613,0,0,0.6418142501150217,0.1602284792543578,0,0,0.1085617398293809,0.2835514373252976,0,0,-0.3062711912473524,-0.1895322689387511,0,1624.615384615385,800.6227106227107,827.2161172161173,878.7912087912089,732.1245421245421,-0.407166,0.044373,0.920654,-1.151428,-0.097198,-2.235565,1,4,1,1,2,60.000000
2023-08-31 16:12:22.634,0,1.400917574294995,1.120641390860189,0,0,1.174857578440775,0.4441956002207872,0,0,0.5713719539030085,0.06461387143182991,0,0,0.1369149371364863,0.2851929472260833,0,0,-0.356719130690534,-0.2634560078856486,0,0,828.4249084249085,800.2197802197802,732.9304029304029,468.6080586080586,-0.372803,0.065979,0.917664,2.743988,-4.269257,-6.183319,1,2,1,1,2,60.000000
2023-08-31 16:12:22.664,,,,,,,,,,,,,,,,,,,,,,,,,,,,,,,,,,,,,,/muse/elements/blink
2023-08-31 16:12:23.635,0,0.8053999009966888,0.8185845627804381,0,0,0.1585341237126474,0.2547240822560857,0,0,0.2554834410103098,0.1614528415667068,0,0,0.2031610266014116,0.2129542196598205,0,0,-0.2551104716043568,-0.2912596314255115,0,1355.054945054945,806.6666666666667,780.4761904761905,4.029304029304029,554.4322344322344,-0.388000,0.078796,0.898804,2.908478,-4.321594,-0.127106,1,2,1,1,4,70.000000
2023-08-31 16:12:23.662,,,,,,,,,,,,,,,,,,,,,,,,,,,,,,,,,,,,,,/muse/elements/blink
2023-08-31 16:12:23.992,,,,,,,,,,,,,,,,,,,,,,,,,,,,,,,,,,,,,,/muse/elements/blink
2023-08-31 16:12:24.189,,,,,,,,,,,,,,,,,,,,,,,,,,,,,,,,,,,,,,/muse/elements/blink
2023-08-31 16:12:24.495,,,,,,,,,,,,,,,,,,,,,,,,,,,,,,,,,,,,,,/muse/elements/blink
2023-08-31 16:12:24.637,0,0.2496944280109711,0.5233598158987478,0,0,0.0003546621777164344,0.3621528609308131,0,0,0.3346268172624927,0.3150987720226795,0,0,0.08752048704163796,0.1390338834189626,0,0,-0.3567227703682625,-0.2550223838092636,0,977.9120879120879,807.8754578754579,792.1611721611722,883.6263736263736,558.0586080586081,-0.341614,0.104492,0.935608,3.170166,-8.508606,-2.183228,1,2,1,1,4,70.000000
2023-08-31 16:12:24.712,,,,,,,,,,,,,,,,,,,,,,,,,,,,,,,,,,,,,,/muse/elements/blink
2023-08-31 16:12:25.132,,,,,,,,,,,,,,,,,,,,,,,,,,,,,,,,,,,,,,/muse/elements/blink
2023-08-31 16:12:25.574,,,,,,,,,,,,,,,,,,,,,,,,,,,,,,,,,,,,,,/muse/elements/blink
2023-08-31 16:12:25.634,0,-0.04374971981714815,0.489165358238865,0,0,-0.02179472296789721,0.4471380908662814,0,0,0.397413019677666,0.5915963689039027,0,0,0.09516451681958017,0.172802096297242,0,0,-0.3885752915098198,-0.1569302296304968,0,999.2673992673992,796.996336996337,794.1758241758242,687.8021978021978,707.5457875457876,-0.359619,0.084229,0.911682,0.560760,-2.736511,0.254211,1,2,1,1,2,70.000000
2023-08-31 16:12:25.812,,,,,,,,,,,,,,,,,,,,,,,,,,,,,,,,,,,,,,/muse/elements/blink
2023-08-31 16:12:26.510,,,,,,,,,,,,,,,,,,,,,,,,,,,,,,,,,,,,,,/muse/elements/blink
2023-08-31 16:12:26.633,0,0.2992552599417435,0.6273689284776095,0,0,-0.1017055076939465,0.4027860418233781,0,0,0.3081120893225515,0.5617381003680931,0,0,0.08405531822177473,0.1490844080072205,0,0,-0.4636097822383689,0.009413495680870585,0,0,803.4432234432235,791.7582417582418,733.7362637362637,614.4688644688645,-0.347961,0.087585,0.919617,-0.149536,-2.714081,-3.327179,1,4,1,1,4,70.000000
2023-08-31 16:12:26.708,,,,,,,,,,,,,,,,,,,,,,,,,,,,,,,,,,,,,,/muse/elements/blink
2023-08-31 16:12:27.319,,,,,,,,,,,,,,,,,,,,,,,,,,,,,,,,,,,,,,/muse/elements/blink
2023-08-31 16:12:27.558,,,,,,,,,,,,,,,,,,,,,,,,,,,,,,,,,,,,,,/muse/elements/blink
2023-08-31 16:12:27.636,0,0.7529578603435739,0.7846055823443131,0,0,0.6468527981054174,0.3600445908436082,0,0,0.5431146612813873,0.4970207663881711,0,0,0.1890333119736536,0.1165477561663911,0,0,-0.3269434000838611,0.1363250637340833,0,610.8424908424909,788.5347985347986,802.2344322344322,520.5860805860806,465.3846153846154,-0.374634,0.061890,0.912048,6.684265,-4.366455,-8.022614,1,4,1,1,4,70.000000
2023-08-31 16:12:27.822,,,,,,,,,,,,,,,,,,,,,,,,,,,,,,,,,,,,,,/muse/elements/blink
2023-08-31 16:12:28.038,,,,,,,,,,,,,,,,,,,,,,,,,,,,,,,,,,,,,,/muse/elements/blink
2023-08-31 16:12:28.342,,,,,,,,,,,,,,,,,,,,,,,,,,,,,,,,,,,,,,/muse/elements/blink
2023-08-31 16:12:28.537,,,,,,,,,,,,,,,,,,,,,,,,,,,,,,,,,,,,,,/muse/elements/blink
2023-08-31 16:12:28.635,0,1.130906469959624,1.092632953705574,0,0,0.884132193149005,0.4367990135609674,0,0,0.5431146612813873,0.5076639340502896,0,0,0.146605197050367,0.2032499356663693,0,0,-0.146649529597397,0.154435650307169,0,1418.315018315018,800.2197802197802,788.5347985347986,903.7728937728938,501.2454212454213,-0.371094,0.042175,0.919373,1.622467,-3.028107,3.544006,1,4,1,1,4,70.000000
2023-08-31 16:12:29.060,,,,,,,,,,,,,,,,,,,,,,,,,,,,,,,,,,,,,,/muse/elements/blink
2023-08-31 16:12:29.451,,,,,,,,,,,,,,,,,,,,,,,,,,,,,,,,,,,,,,/muse/elements/blink
2023-08-31 16:12:29.639,0,1.029067414852041,1.034338336253315,0,0,0.2054585379991177,-0.2160735851551323,0,0,0.4338026517323894,0.02193769666019711,0,0,0.05027686848696293,0.192284851879344,0,0,-0.2539893230772896,-0.01522126653979297,0,847.7655677655678,746.6300366300367,794.5787545787546,707.5457875457876,833.6630036630037,-0.386292,0.065674,0.918701,3.087921,-3.170166,-2.153320,1,4,1,1,2,70.000000
2023-08-31 16:12:29.648,,,,,,,,,,,,,,,,,,,,,,,,,,,,,,,,,,,,,,/muse/elements/blink
2023-08-31 16:12:30.082,,,,,,,,,,,,,,,,,,,,,,,,,,,,,,,,,,,,,,/muse/elements/blink
2023-08-31 16:12:30.277,,,,,,,,,,,,,,,,,,,,,,,,,,,,,,,,,,,,,,/muse/elements/blink
2023-08-31 16:12:30.493,,,,,,,,,,,,,,,,,,,,,,,,,,,,,,,,,,,,,,/muse/elements/blink
2023-08-31 16:12:30.634,0,1.061385627588436,1.136023555078692,0,0,0.1598061768003708,0.447839330545675,0,0,0.3286197663041633,0.2340094892440442,0,0,0.07349407177236945,0.2517924432235505,0,0,-0.2076566568149084,-0.3458409216771537,0,774.8351648351648,794.1758241758242,782.0879120879121,376.3369963369963,625.3479853479854,-0.361023,0.074890,0.912720,1.405640,-4.949646,5.465546,1,4,1,1,4,70.000000
2023-08-31 16:12:30.689,,,,,,,,,,,,,,,,,,,,,,,,,,,,,,,,,,,,,,/muse/elements/blink
2023-08-31 16:12:31.060,,,,,,,,,,,,,,,,,,,,,,,,,,,,,,,,,,,,,,/muse/elements/blink
2023-08-31 16:12:31.299,,,,,,,,,,,,,,,,,,,,,,,,,,,,,,,,,,,,,,/muse/elements/blink
2023-08-31 16:12:31.635,0,1.115586379923469,1.091898180576683,0,0,0.2863734477524607,0.4695463387895372,0,0,0.2611822773364452,0.3761061986845237,0,0,0.1863474510828838,0.2051110196974612,0,0,-0.2835911759250061,-0.255133488772243,0,1030.29304029304,809.0842490842491,786.1172161172161,649.5238095238095,484.7252747252747,-0.402405,0.064575,0.900940,-1.106567,-0.201874,-4.082336,1,4,1,1,4,70.000000
2023-08-31 16:12:31.821,,,,,,,,,,,,,,,,,,,,,,,,,,,,,,,,,,,,,,/muse/elements/blink
2023-08-31 16:12:32.083,,,,,,,,,,,,,,,,,,,,,,,,,,,,,,,,,,,,,,/muse/elements/blink
2023-08-31 16:12:32.408,,,,,,,,,,,,,,,,,,,,,,,,,,,,,,,,,,,,,,/muse/elements/blink
2023-08-31 16:12:32.603,,,,,,,,,,,,,,,,,,,,,,,,,,,,,,,,,,,,,,/muse/elements/blink
2023-08-31 16:12:32.634,0,0.9674418092383164,0.6674729096709952,0,0,0.2537598193326631,0.1127254144062716,0,0,0.1299574758063946,0.5093893407599612,0,0,0.1564064687456372,0.2843886917740541,0,0,-0.1774524764312384,-0.06130701306397145,0,740.5860805860806,795.7875457875458,800.2197802197802,467.3992673992674,585.4578754578755,-0.372864,0.062439,0.917542,3.872986,-1.585083,-1.667328,1,2,1,1,4,70.000000
2023-08-31 16:12:33.038,,,,,,,,,,,,,,,,,,,,,,,,,,,,,,,,,,,,,,/muse/elements/blink
2023-08-31 16:12:33.498,,,,,,,,,,,,,,,,,,,,,,,,,,,,,,,,,,,,,,/muse/elements/jaw_clench
2023-08-31 16:12:33.631,,,,,,,,,,,,,,,,,,,,,,,,,,,,,,,,,,,,,,/muse/elements/blink
2023-08-31 16:12:33.643,0,0.7918724903847246,0.4603228461676507,0,0,0.2060575330128593,-0.02670090634213255,0,0,0.3974401545754339,0.4802746442157498,0,0,0.05661745824859242,0.1223311422835202,0,0,-0.2131429917065987,-0.1295175844973545,0,672.893772893773,774.0293040293041,801.4285714285714,766.3736263736264,728.901098901099,-0.371521,0.097351,0.916870,2.743988,-5.697327,-1.764526,1,4,1,1,4,60.000000
2023-08-31 16:12:33.828,,,,,,,,,,,,,,,,,,,,,,,,,,,,,,,,,,,,,,/muse/elements/blink
2023-08-31 16:12:34.110,,,,,,,,,,,,,,,,,,,,,,,,,,,,,,,,,,,,,,/muse/elements/blink
2023-08-31 16:12:34.524,,,,,,,,,,,,,,,,,,,,,,,,,,,,,,,,,,,,,,/muse/elements/blink
2023-08-31 16:12:34.633,0,0.8852504941927972,0.5924692513954466,0,0,0.2368495559437507,0.2123926476423285,0,0,0.4828343744153741,0.2807709314142426,0,0,0.01141022921819955,0.1665792533181344,0,0,-0.3076003677412389,-0.03137973573997616,0,620.1098901098901,800.2197802197802,823.992673992674,508.0952380952381,513.7362637362637,-0.351440,0.086304,0.915649,2.190704,-3.050537,-1.345825,1,4,1,1,4,60.000000
2023-08-31 16:12:34.721,,,,,,,,,,,,,,,,,,,,,,,,,,,,,,,,,,,,,,/muse/elements/blink
2023-08-31 16:12:35.050,,,,,,,,,,,,,,,,,,,,,,,,,,,,,,,,,,,,,,/muse/elements/blink
2023-08-31 16:12:35.355,,,,,,,,,,,,,,,,,,,,,,,,,,,,,,,,,,,,,,/muse/elements/blink
2023-08-31 16:12:35.633,0,1.281295052816833,1.008023784618445,0,0,0.7364162988775933,0.4754092554499715,0,0,0.3084633844046469,0.1608955874010337,0,0,0.1141713391448912,0.3229646231808945,0,0,-0.4073150420556755,-0.02008299667631254,0,1601.648351648352,821.1721611721612,798.2051282051282,209.1208791208791,525.8241758241759,-0.279053,0.086731,0.943054,-0.807495,-9.473114,10.796509,1,4,1,1,4,60.000000
2023-08-31 16:12:35.643,,,,,,,,,,,,,,,,,,,,,,,,,,,,,,,,,,,,,,/muse/elements/jaw_clench
2023-08-31 16:12:35.753,,,,,,,,,,,,,,,,,,,,,,,,,,,,,,,,,,,,,,/muse/elements/blink
2023-08-31 16:12:36.081,,,,,,,,,,,,,,,,,,,,,,,,,,,,,,,,,,,,,,/muse/elements/blink
2023-08-31 16:12:36.366,,,,,,,,,,,,,,,,,,,,,,,,,,,,,,,,,,,,,,/muse/elements/jaw_clench
2023-08-31 16:12:36.454,,,,,,,,,,,,,,,,,,,,,,,,,,,,,,,,,,,,,,/muse/elements/blink
2023-08-31 16:12:36.640,0,1.146923744776739,1.016400487075059,0,0,0.5736122209814396,0.3996562761846345,0,0,0.3650617916070157,0.2880619156040575,0,0,0.3892473802722702,0.5457189488625283,0,0,0.06287056322700152,0.2253837351044083,0,690.2197802197802,810.6959706959707,823.5897435897436,371.9047619047619,580.2197802197802,-0.256775,0.097961,0.947998,2.788849,-1.929016,-1.330872,1,4,1,1,2,60.000000
2023-08-31 16:12:36.867,,,,,,,,,,,,,,,,,,,,,,,,,,,,,,,,,,,,,,/muse/elements/blink
2023-08-31 16:12:37.063,,,,,,,,,,,,,,,,,,,,,,,,,,,,,,,,,,,,,,/muse/elements/blink
2023-08-31 16:12:37.324,,,,,,,,,,,,,,,,,,,,,,,,,,,,,,,,,,,,,,/muse/elements/blink
2023-08-31 16:12:37.479,,,,,,,,,,,,,,,,,,,,,,,,,,,,,,,,,,,,,,/muse/elements/blink
2023-08-31 16:12:37.641,0,0.7181762075367509,1.193828922047852,0,0,-0.05305460823728646,0.2759238417680624,0,0,0.1527880481985068,0.2104132055990223,0,0,0.6353515971342243,0.7615227580132193,0,0,0.1948408800271731,0.3716734043739665,0,123.2967032967033,796.996336996337,838.4981684981685,563.2967032967033,440.4029304029304,-0.351135,0.125427,0.933228,3.349609,-3.087921,-2.923431,1,4,1,1,4,60.000000
2023-08-31 16:12:38.087,,,,,,,,,,,,,,,,,,,,,,,,,,,,,,,,,,,,,,/muse/elements/blink
2023-08-31 16:12:38.369,,,,,,,,,,,,,,,,,,,,,,,,,,,,,,,,,,,,,,/muse/elements/blink
2023-08-31 16:12:38.634,0,0.7181762075367509,1.193828922047852,0,0,-0.05305460823728646,0.2759238417680624,0,0,0.1527880481985068,0.2104132055990223,0,0,0.6353515971342243,0.7615227580132193,0,0,0.1948408800271731,0.3716734043739665,0,978.3150183150184,803.040293040293,833.6630036630037,1295.018315018315,429.1208791208791,-0.375977,0.108337,0.906006,2.115936,-2.340240,-1.248627,1,4,1,1,4,60.000000
2023-08-31 16:12:38.892,,,,,,,,,,,,,,,,,,,,,,,,,,,,,,,,,,,,,,/muse/elements/blink
2023-08-31 16:12:39.153,,,,,,,,,,,,,,,,,,,,,,,,,,,,,,,,,,,,,,/muse/elements/blink
2023-08-31 16:12:39.394,,,,,,,,,,,,,,,,,,,,,,,,,,,,,,,,,,,,,,/muse/elements/blink
2023-08-31 16:12:39.635,0,0.7542668924544894,1.193828922047852,0,0,0.002701367389385193,0.2759238417680624,0,0,0.3646235227297324,0.2104132055990223,0,0,0.7599723378928769,0.7615227580132193,0,0,0.495210174800234,0.3716734043739665,0,0,778.0586080586081,863.0769230769231,1428.791208791209,591.0989010989011,-0.354614,0.124573,0.914124,2.938385,-4.373932,-1.420593,1,4,1,1,4,60.000000
2023-08-31 16:12:39.742,,,,,,,,,,,,,,,,,,,,,,,,,,,,,,,,,,,,,,/muse/elements/blink
2023-08-31 16:12:40.113,,,,,,,,,,,,,,,,,,,,,,,,,,,,,,,,,,,,,,/muse/elements/blink
2023-08-31 16:12:40.527,,,,,,,,,,,,,,,,,,,,,,,,,,,,,,,,,,,,,,/muse/elements/blink
2023-08-31 16:12:40.633,0,0.8272225094480175,1.193828922047852,0,0,0.05125373148693851,0.2759238417680624,0,0,0.3632283766469657,0.2104132055990223,0,0,0.7874376813511232,0.7615227580132193,0,0,0.5057464448025238,0.3716734043739665,0,829.6336996336996,791.7582417582418,796.5934065934066,1552.087912087912,488.3516483516484,-0.361572,0.127625,0.910339,1.742096,-6.639404,1.203766,1,4,1,1,4,60.000000
2023-08-31 16:12:40.788,,,,,,,,,,,,,,,,,,,,,,,,,,,,,,,,,,,,,,/muse/elements/blink
2023-08-31 16:12:41.419,,,,,,,,,,,,,,,,,,,,,,,,,,,,,,,,,,,,,,/muse/elements/blink
2023-08-31 16:12:41.634,0,0.8272225094480175,1.193828922047852,0,0,0.05125373148693851,0.2759238417680624,0,0,0.3632283766469657,0.2104132055990223,0,0,0.7874376813511232,0.7615227580132193,0,0,0.5057464448025238,0.3716734043739665,0,0,801.4285714285714,803.4432234432235,1517.435897435897,363.8461538461539,-0.419189,0.124023,0.893311,3.588867,-3.185120,-4.418793,1,4,1,1,4,60.000000
2023-08-31 16:12:41.832,,,,,,,,,,,,,,,,,,,,,,,,,,,,,,,,,,,,,,/muse/elements/blink
2023-08-31 16:12:42.159,,,,,,,,,,,,,,,,,,,,,,,,,,,,,,,,,,,,,,/muse/elements/blink
2023-08-31 16:12:42.637,0,0.8272225094480175,1.193828922047852,0,0,0.05125373148693851,0.2759238417680624,0,0,0.3632283766469657,0.2104132055990223,0,0,0.7874376813511232,0.7615227580132193,0,0,0.5057464448025238,0.3716734043739665,0,1186.630036630037,771.6117216117216,764.3589743589744,671.6849816849817,552.4175824175825,-0.409973,0.120361,0.887817,1.173859,-3.828125,-1.390686,1,4,1,1,4,60.000000
2023-08-31 16:12:42.798,,,,,,,,,,,,,,,,,,,,,,,,,,,,,,,,,,,,,,/muse/elements/blink
2023-08-31 16:12:42.887,,,,,,,,,,,,,,,,,,,,,,,,,,,,,,,,,,,,,,/muse/elements/jaw_clench
2023-08-31 16:12:43.238,,,,,,,,,,,,,,,,,,,,,,,,,,,,,,,,,,,,,,/muse/elements/blink
2023-08-31 16:12:43.634,0,0.8272225094480175,1.193828922047852,0,0,0.05125373148693851,0.2759238417680624,0,0,0.3632283766469657,0.2104132055990223,0,0,0.7874376813511232,0.7615227580132193,0,0,0.5057464448025238,0.3716734043739665,0,1570.21978021978,814.7252747252747,790.1465201465202,907.8021978021978,421.0622710622711,-0.400208,0.120789,0.903809,3.491669,-6.609497,-5.330963,1,4,1,1,4,75.000000
2023-08-31 16:12:44.176,,,,,,,,,,,,,,,,,,,,,,,,,,,,,,,,,,,,,,/muse/elements/blink
2023-08-31 16:12:44.401,,,,,,,,,,,,,,,,,,,,,,,,,,,,,,,,,,,,,,/muse/elements/blink
2023-08-31 16:12:44.634,0,0.8272225094480175,1.193828922047852,0,0,0.05125373148693851,0.2759238417680624,0,0,0.3632283766469657,0.2104132055990223,0,0,0.7874376813511232,0.7615227580132193,0,0,0.5057464448025238,0.3716734043739665,0,0,796.1904761904763,767.5824175824176,0,378.3516483516484,-0.397583,0.011658,0.893616,-8.486176,3.858032,6.026306,1,4,1,1,4,75.000000
2023-08-31 16:12:45.297,,,,,,,,,,,,,,,,,,,,,,,,,,,,,,,,,,,,,,/muse/elements/blink
2023-08-31 16:12:45.516,,,,,,,,,,,,,,,,,,,,,,,,,,,,,,,,,,,,,,/muse/elements/blink
2023-08-31 16:12:45.634,0,0.8272225094480175,1.193828922047852,0,0,0.05125373148693851,0.2759238417680624,0,0,0.3632283766469657,0.2104132055990223,0,0,0.7874376813511232,0.7615227580132193,0,0,0.5057464448025238,0.3716734043739665,0,316.3003663003663,807.4725274725275,736.1538461538462,0,372.3076923076923,-0.442810,-0.039490,0.871155,-5.652466,-2.429962,-22.931366,1,4,1,1,4,75.000000
2023-08-31 16:12:46.108,,,,,,,,,,,,,,,,,,,,,,,,,,,,,,,,,,,,,,/muse/elements/blink
2023-08-31 16:12:46.634,0,0.2764034440651883,1.193828922047852,0,0,0.1934554051976193,0.2759238417680624,0,0,-0.003163943031199624,0.2104132055990223,0,0,0.442532334667642,0.7615227580132193,0,0,0.3207765876957468,0.3716734043739665,0,1624.615384615385,808.2783882783883,792.967032967033,440.4029304029304,371.0989010989011,-0.404358,-0.038696,0.893311,3.386993,-4.904785,3.558960,1,4,1,1,4,75.000000
2023-08-31 16:12:47.142,,,,,,,,,,,,,,,,,,,,,,,,,,,,,,,,,,,,,,/muse/elements/jaw_clench
2023-08-31 16:12:47.273,,,,,,,,,,,,,,,,,,,,,,,,,,,,,,,,,,,,,,/muse/elements/blink
2023-08-31 16:12:47.634,0,0.3927456061236991,0.3695548384891706,0,0,0.3818825411052061,0.008969560238816678,0,0,0.3247501263398809,0.321697051767809,0,0,0.4152802561687397,0.7189291946259497,0,0,0.3324000789308387,0.1159637883317508,0,1197.106227106227,790.5494505494506,798.2051282051282,80.18315018315019,360.2197802197802,-0.352783,0.068604,0.919434,6.459961,-6.916046,-2.213135,1,4,1,1,4,75.000000
2023-08-31 16:12:47.844,,,,,,,,,,,,,,,,,,,,,,,,,,,,,,,,,,,,,,/muse/elements/blink
2023-08-31 16:12:48.021,,,,,,,,,,,,,,,,,,,,,,,,,,,,,,,,,,,,,,/muse/elements/jaw_clench
2023-08-31 16:12:48.264,,,,,,,,,,,,,,,,,,,,,,,,,,,,,,,,,,,,,,/muse/elements/jaw_clench
2023-08-31 16:12:48.634,0,0.46292915975721,0.8360758221633082,0,0,-0.003125557064028046,0.4822204865095594,0,0,0.2818668793815602,0.4817158054455468,0,0,0.3017097586434861,0.8615367586205114,0,0,0.2859364669017446,0.1854007334895489,0,925.934065934066,783.2967032967033,823.992673992674,1459.010989010989,373.5164835164835,-0.355530,0.057983,0.916443,0.994415,-2.684174,-0.000000,1,2,1,1,4,75.000000
2023-08-31 16:12:48.726,,,,,,,,,,,,,,,,,,,,,,,,,,,,,,,,,,,,,,/muse/elements/blink
2023-08-31 16:12:49.144,,,,,,,,,,,,,,,,,,,,,,,,,,,,,,,,,,,,,,/muse/elements/blink
2023-08-31 16:12:49.363,,,,,,,,,,,,,,,,,,,,,,,,,,,,,,,,,,,,,,/muse/elements/blink
2023-08-31 16:12:49.636,0,0.6808976369747837,0.8483554668475316,0,0,-0.1197915754688604,0.0454958041996284,0,0,-0.33514209974592,0.4810860978213681,0,0,0.1915557286568239,0.4706013582755042,0,0,0.1816419265593381,0.5004723280214803,0,1038.351648351648,817.948717948718,771.6117216117216,1603.260073260073,422.2710622710623,-0.348999,0.072449,0.919800,3.005676,-4.134674,0.800018,1,2,1,1,4,75.000000
2023-08-31 16:12:49.781,,,,,,,,,,,,,,,,,,,,,,,,,,,,,,,,,,,,,,/muse/elements/blink
2023-08-31 16:12:49.960,,,,,,,,,,,,,,,,,,,,,,,,,,,,,,,,,,,,,,/muse/elements/blink
2023-08-31 16:12:49.960,,,,,,,,,,,,,,,,,,,,,,,,,,,,,,,,,,,,,,/muse/elements/jaw_clench
2023-08-31 16:12:50.466,,,,,,,,,,,,,,,,,,,,,,,,,,,,,,,,,,,,,,/muse/elements/jaw_clench
2023-08-31 16:12:50.634,0,0.6115202842136848,0.565704770550382,0,0,0.02746757114979497,-0.2435606578737322,0,0,0.2664127599577365,0.5538243815247669,0,0,0.4955280458297867,0.5243787870466935,0,0,0.2761989792064098,0.4136815174864556,0,0,790.1465201465202,804.2490842490843,906.996336996337,470.2197802197803,-0.346130,0.061401,0.926575,0.209351,-2.362671,1.308441,1,4,1,1,4,75.000000
2023-08-31 16:12:50.796,,,,,,,,,,,,,,,,,,,,,,,,,,,,,,,,,,,,,,/muse/elements/blink
2023-08-31 16:12:50.796,,,,,,,,,,,,,,,,,,,,,,,,,,,,,,,,,,,,,,/muse/elements/jaw_clench
2023-08-31 16:12:50.993,,,,,,,,,,,,,,,,,,,,,,,,,,,,,,,,,,,,,,/muse/elements/blink
2023-08-31 16:12:51.214,,,,,,,,,,,,,,,,,,,,,,,,,,,,,,,,,,,,,,/muse/elements/blink
2023-08-31 16:12:51.214,,,,,,,,,,,,,,,,,,,,,,,,,,,,,,,,,,,,,,/muse/elements/jaw_clench
2023-08-31 16:12:51.591,,,,,,,,,,,,,,,,,,,,,,,,,,,,,,,,,,,,,,/muse/elements/blink
2023-08-31 16:12:51.634,0,0.7372635774662017,0.8432685034517516,0,0,0.3303644026574048,0.08207387737812553,0,0,0.320702116324029,0.3951986977240125,0,0,0.3762268052417747,0.6535467353344431,0,0,0.3063384534664643,0.3484142355825863,0,0,805.4578754578755,806.2637362637363,1615.750915750916,454.1025641025641,-0.428345,0.066650,0.891663,0.403748,5.988922,6.467438,1,4,1,1,4,75.000000
2023-08-31 16:12:51.921,,,,,,,,,,,,,,,,,,,,,,,,,,,,,,,,,,,,,,/muse/elements/blink
2023-08-31 16:12:52.640,0,0.36171606050334,0.7672335429250412,0,0,0.009837230772543752,0.1350283807078848,0,0,0.2622875237909101,0.3801456502196278,0,0,0.2859080381076881,0.7027106342327739,0,0,0.2813804565983639,0.4945486119848511,0,0,751.8681318681319,779.6703296703297,632.1978021978022,603.1868131868132,-0.419556,0.081360,0.893677,1.839294,-4.897308,-0.643005,1,4,1,1,4,75.000000
2023-08-31 16:12:52.716,,,,,,,,,,,,,,,,,,,,,,,,,,,,,,,,,,,,,,/muse/elements/blink
2023-08-31 16:12:52.915,,,,,,,,,,,,,,,,,,,,,,,,,,,,,,,,,,,,,,/muse/elements/blink
