TimeStamp,Delta_TP9,Delta_AF7,Delta_AF8,Delta_TP10,Theta_TP9,Theta_AF7,Theta_AF8,Theta_TP10,Alpha_TP9,Alpha_AF7,Alpha_AF8,Alpha_TP10,Beta_TP9,Beta_AF7,Beta_AF8,Beta_TP10,Gamma_TP9,Gamma_AF7,Gamma_AF8,Gamma_TP10,RAW_TP9,RAW_AF7,RAW_AF8,RAW_TP10,AUX_RIGHT,Accelerometer_X,Accelerometer_Y,Accelerometer_Z,Gyro_X,Gyro_Y,Gyro_Z,HeadBandOn,HSI_TP9,HSI_AF7,HSI_AF8,HSI_TP10,Battery,Elements
2023-09-13 18:17:58.567,,,,,,,,,,,,,,,,,,,,,,,,,,,,,,,,,,,,,,/muse/event/connected Muse-D424
2023-09-13 18:17:59.568,0.7783088385942316,0.7581533844552716,0.1784396835442814,0.712319534155611,0.6008780652336388,0.1057336800126576,0.3178351919981363,0.544572267042535,0.6085142369329909,0.1794297377993563,0.06982489331229726,0.607585495601914,0.3163756500390221,0.07111065163979932,0.01267931632981402,0.5720108529135626,0.2840116830884982,-0.3574317166348336,-0.1947978761240488,0.3617690728317781,691.4285714285714,796.5934065934066,788.9377289377289,780.8791208791209,777.6556776556777,-0.132080,0.067932,0.974426,3.880463,-5.951538,-6.093597,1,1,1,1,1,30.000000
2023-09-13 18:18:00.569,0.9275796445078192,0.6955172002754043,0.1524693336259991,0.6693832904464863,0.6366575331515613,0.287693743095701,0.2973290015851423,0.4517883799627936,0.7909398652280341,0.2693098930176906,0.4724780972629133,0.531716056506036,0.4355812915971422,0.05119956853174596,0.09467522907818296,0.443838194737613,0.1562738486244518,-0.2419408752616622,-0.204273348961911,0.3410967448306718,726.4835164835165,787.3260073260074,788.5347985347986,778.4615384615385,666.0439560439561,-0.135864,0.046570,0.973633,2.586975,-3.304749,8.000183,1,1,1,1,1,30.000000
2023-09-13 18:18:01.568,0.8092751196988759,0.8568800156884637,0.6443869683277011,0.7097475612290965,0.72057451018548,0.4327659757436115,0.2201774714729147,0.5395200338760067,0.753550787167074,0.3891113796312378,0.4723572806275552,0.6864948806564991,0.5155799974530643,0.04575789555418131,-0.02410545132966146,0.4671336609198304,0.09573064663659778,-0.2943833135641349,-0.2727027266983337,0.3118235938574128,677.7289377289377,795.3846153846154,775.2380952380953,762.3443223443223,970.6593406593407,-0.169678,0.134644,0.946045,2.302856,3.297272,-3.065491,1,1,1,1,1,30.000000
2023-09-13 18:18:02.569,0.6519009736445533,0.5543915291737046,0.4738619389572999,0.7897752042801273,0.713524061357481,0.01392829562034465,0.2482741324166558,0.5047106523103736,0.7335135288592056,0.1786982014977141,0.03407812482943867,0.5312273463781547,0.5623655962910697,0.2107515886636952,0.1102922324778684,0.5741260792216668,0.1720714190602319,-0.1996049121440002,-0.03928694773013004,0.3513102457046023,659.5970695970697,791.3553113553114,789.7435897435897,774.4322344322345,658.7912087912088,-0.249451,0.094238,0.955139,0.710297,-4.673004,-1.278534,1,1,1,1,1,30.000000
2023-09-13 18:18:03.569,0.7858146365755964,0.6902437973458192,0.5493332485177492,0.8890354192736266,0.3637769871836739,0.2353279409469158,0.1372827052740798,0.5232776237555665,0.7042338228578108,0.2453159234063812,0.1181824398356733,0.7017480317575335,0.4579138925539252,0.3137716227752321,0.1743549056715942,0.4480913774304925,0.08163512477804857,-0.1272218358670384,-0.07533340597051637,0.05076063690825511,783.2967032967033,789.7435897435897,782.0879120879121,772.8205128205128,787.7289377289378,-0.240234,0.141846,0.941650,6.803894,-2.250519,5.129089,1,1,1,1,1,30.000000
2023-09-13 18:18:04.578,0.823443393452023,0.4568515581367021,0.3762699184757756,0.8658915586760841,0.4513666761396258,0.1490454742214674,-0.08149191629318128,0.4795671636635778,0.7297296423731555,0.2975195474593109,-2.85829286126141e-05,0.7239893694438833,0.4481584607154686,0.08400154290797539,0.03919013848222815,0.6187296901912281,0.04339805365209155,-0.3169113399489731,-0.3747851914741611,0.1709354254494763,767.1794871794872,785.3113553113553,780.4761904761905,774.8351648351648,937.6190476190476,-0.217529,0.117615,0.959656,1.502838,-6.856232,3.394470,1,1,1,1,1,30.000000
2023-09-13 18:18:05.568,0.6719527908810584,0.255384710296994,0.2991227930902264,0.6479695219986612,0.4391310557497034,0.0067232279731554,0.07576863631981498,0.3191719329225516,0.5602627476401065,0.3417530902485901,0.08642058152540619,0.5816990591186805,0.344500461573732,0.03148966058839201,-0.01541436740904279,0.6963401414201817,0.03269582578982477,-0.4631388653424423,-0.3883186172019805,0.2986368400772736,735.7509157509157,795.3846153846154,772.014652014652,786.9230769230769,741.3919413919414,-0.180664,0.122681,0.964539,-0.897217,-9.936676,3.364563,1,1,1,1,1,30.000000
2023-09-13 18:18:06.569,0.3235877168552055,-0.1115871421338367,0.1604729412818054,0.558475143642445,0.09167325002661789,-0.03173929901153524,0.05134987874786825,-0.03525561963652873,0.2496197001449897,0.377605605521349,0.1532803557771465,0.3303080009240782,0.1854349031997778,0.02997025274246518,-0.004480038752263534,0.5168169817610943,0.04899113244764369,-0.4737752278101548,-0.3637114595222507,0.3090048200875667,874.3589743589744,793.7728937728938,784.1025641025641,789.7435897435897,813.5164835164835,-0.173645,0.111694,0.959900,1.338348,-5.016937,-3.813171,1,1,1,1,1,30.000000
2023-09-13 18:18:07.568,0.1600943827352942,-0.04354967164540681,0.3822015112164016,0.498485483093845,0.2141065114751019,-0.162972850344937,0.1599553645165164,-0.02662715224778299,0.3816384426920989,0.2480893534407972,0.3155108453945513,0.4741792607558245,0.2674595000558632,-0.09575563550264929,-0.175700142150909,0.4411575497290431,0.08833772734901302,-0.3639225717910078,-0.2137455103582082,0.3578400678682251,818.7545787545788,789.3406593406594,774.0293040293041,780.8791208791209,848.1684981684982,-0.159729,0.095032,0.967773,0.493469,-4.830017,-3.581390,1,1,1,1,1,30.000000
2023-09-13 18:18:07.963,,,,,,,,,,,,,,,,,,,,,,,,,,,,,,,,,,,,,,/muse/elements/blink
2023-09-13 18:18:08.161,,,,,,,,,,,,,,,,,,,,,,,,,,,,,,,,,,,,,,/muse/elements/blink
2023-09-13 18:18:08.360,,,,,,,,,,,,,,,,,,,,,,,,,,,,,,,,,,,,,,/muse/elements/blink
2023-09-13 18:18:08.568,0.3994280634923931,0.1426440106091721,0.3682710079771929,0.4749478871837493,0.07725496701605372,0.01251941824994992,0.1951450803188887,-0.04391148565149425,0.3006952105891401,0.3531656779806139,0.356190386260769,0.4774179536131311,0.4253050097781246,0.02481712392189543,-0.0924611788391802,0.4653263277628022,0.1379996571694608,-0.4659237823715516,-0.2336994560586763,0.4214292847512537,816.7399267399268,795.3846153846154,783.2967032967033,790.952380952381,831.6483516483516,-0.184937,0.135925,0.951782,5.368347,-2.287903,0.934601,1,1,1,1,1,30.000000
2023-09-13 18:18:08.865,,,,,,,,,,,,,,,,,,,,,,,,,,,,,,,,,,,,,,/muse/elements/blink
2023-09-13 18:18:09.301,,,,,,,,,,,,,,,,,,,,,,,,,,,,,,,,,,,,,,/muse/elements/blink
2023-09-13 18:18:09.575,0.3994280634923931,0.3555247247917543,0.3049114334626003,0.5818754600826155,0.07725496701605372,0.1065309761122097,0.3770390625118836,0.01808526145245199,0.3006952105891401,0.3202857423013121,0.5932625155386989,0.4456534995323148,0.4253050097781246,-0.01212099961052909,-0.0291530628915489,0.4658810286969611,0.1379996571694608,-0.2292253930819797,-0.1496499237599503,0.4710535731641779,916.2637362637363,796.1904761904763,782.893772893773,787.7289377289378,849.3772893772895,-0.192017,0.147461,0.956360,2.145844,-4.815063,1.128998,1,1,1,1,1,30.000000
2023-09-13 18:18:10.489,,,,,,,,,,,,,,,,,,,,,,,,,,,,,,,,,,,,,,/muse/elements/blink
2023-09-13 18:18:10.569,0.3994280634923931,0.5171241395735322,0.649297926278062,0.5818754600826155,0.07725496701605372,-0.2248986210545429,0.4394716009081082,0.01808526145245199,0.3006952105891401,0.3105664910321475,0.5792650505500831,0.4456534995323148,0.4253050097781246,-0.1747476619452623,0.177567075832693,0.4658810286969611,0.1379996571694608,-0.07038907117668794,-0.1035875032688964,0.4710535731641779,917.0695970695971,797.8021978021978,775.6410256410256,810.2930402930403,998.8644688644689,-0.185486,0.156677,0.947937,1.914062,-4.538422,0.657959,1,2,1,1,2,30.000000
2023-09-13 18:18:11.569,0.3994280634923931,0.5493170321641782,0.8478006069018518,0.5818754600826155,0.07725496701605372,-0.007476839721991966,0.4042290878152567,0.01808526145245199,0.3006952105891401,0.200919261472499,0.4865845258681352,0.4456534995323148,0.4253050097781246,-0.06668244926753486,0.1129166164973718,0.4658810286969611,0.1379996571694608,-0.08593597195847906,-0.1964737121467592,0.4710535731641779,879.5970695970697,791.3553113553114,772.014652014652,797.3992673992674,888.8644688644689,-0.103577,0.132751,0.963684,-0.859833,-15.895691,-15.619049,1,2,1,1,2,30.000000
2023-09-13 18:18:12.573,0.9133194788689418,0.3307744865981671,0.695135180375386,0.8409672894370802,0.3912673385373087,0.2693440272714312,0.07750736031415514,0.4286171258621866,0.592141693439359,0.4729477114817608,0.3917702849802,0.6046272084972919,0.2995099734264876,-0.01490319714018953,0.0040350875789713,0.3605031117393256,0.007736687246665002,-0.2166989652283157,-0.4828732052835187,0.04866876601943614,891.2820512820513,783.6996336996338,780.4761904761905,794.5787545787546,832.4542124542124,-0.048462,0.112915,0.974304,0.530853,-3.551483,1.248627,1,1,1,1,1,30.000000
2023-09-13 18:18:13.568,0.8917713394206614,0.218155279977491,0.6537940470343804,0.6481743788342594,0.5624380852447156,0.3072090472391858,0.1010108598818379,0.4640124817685136,0.7116853884053143,0.4654486584000692,0.6119486369525661,0.5961343445473121,0.520319670827003,0.03605588703193689,0.1098073451954721,0.5064453850446462,0.3779905358648386,-0.3417388725473715,-0.4310027045475392,0.4131903798139149,917.0695970695971,785.7142857142858,771.6117216117216,794.5787545787546,942.8571428571429,-0.025208,0.112854,0.979187,2.512207,-3.768311,0.889740,1,1,1,1,1,30.000000
2023-09-13 18:18:13.924,,,,,,,,,,,,,,,,,,,,,,,,,,,,,,,,,,,,,,/muse/elements/blink
2023-09-13 18:18:14.568,0.8376509211237204,0.3126093583326853,0.03260495941674683,0.4888440101251783,0.4874747591109523,0.11528827686792,-0.01636501121605688,0.4395828723891638,0.6007360398348365,0.379625336281686,0.59101009576636,0.4149848533090769,0.5379994537767993,0.06472225112735348,-0.07991979951977782,0.6859335460744729,0.3834956637717467,-0.3273796514350797,-0.2361146933507487,0.6492622607767121,944.4688644688645,799.8168498168499,774.4322344322345,810.6959706959707,896.1172161172161,-0.163696,0.151611,0.962830,3.259888,6.975861,6.893616,1,1,1,1,1,30.000000
2023-09-13 18:18:15.135,,,,,,,,,,,,,,,,,,,,,,,,,,,,,,,,,,,,,,/muse/elements/blink
2023-09-13 18:18:15.568,0.5772271831109397,0.4477601583430869,0.1631213162237374,0.5080200232852702,0.3407054728486118,0.2654109525894741,-0.02486056235701031,0.4003723758031585,0.2994389139323178,0.4861485463320898,0.2762577511958131,0.2268843629976036,0.466185469663235,0.3302558166959132,0.1845686370857739,0.6410694209079468,0.2760264880003296,0.02570232741437791,-0.02272538454919347,0.6171322430274089,938.021978021978,798.6080586080586,776.8498168498169,817.5457875457876,877.5824175824176,-0.328613,0.159119,0.916504,1.420593,-3.409424,-1.457977,1,1,1,1,1,30.000000
2023-09-13 18:18:16.568,0.5772271831109397,0.4163628376818655,0.01839864108218374,0.5080200232852702,0.3407054728486118,0.1479063030126754,0.07768745132468062,0.4003723758031585,0.2994389139323178,0.4924230727365748,0.3774498023648319,0.2268843629976036,0.466185469663235,0.4810988216966157,0.5069869709132169,0.6410694209079468,0.2760264880003296,0.2927716801616999,0.1760130937962872,0.6171322430274089,918.2783882783883,793.3699633699634,775.6410256410256,814.3223443223443,1031.904761904762,-0.177551,0.121643,0.962402,-2.071075,-1.659851,7.596436,1,2,1,1,2,30.000000
2023-09-13 18:18:16.680,,,,,,,,,,,,,,,,,,,,,,,,,,,,,,,,,,,,,,/muse/elements/blink
2023-09-13 18:18:17.114,,,,,,,,,,,,,,,,,,,,,,,,,,,,,,,,,,,,,,/muse/elements/blink
2023-09-13 18:18:17.568,0.5772271831109397,1.068659117858151,0.4919881626341938,0.5080200232852702,0.3407054728486118,0.4428448641762432,0.4746149491640481,0.4003723758031585,0.2994389139323178,0.7298729897161653,0.8082799501563258,0.2268843629976036,0.466185469663235,0.3855877006791144,0.3702581842558694,0.6410694209079468,0.2760264880003296,-0.02073758256061273,0.1577311330794249,0.6171322430274089,971.4652014652015,782.0879120879121,785.7142857142858,814.7252747252747,899.7435897435897,-0.278442,0.141968,0.926208,-0.598145,-10.960999,-5.764618,1,2,1,1,2,30.000000
2023-09-13 18:18:18.569,0.5772271831109397,1.312940474155103,0.7875041960816705,0.5080200232852702,0.3407054728486118,0.5235756059011383,0.6209636692116131,0.4003723758031585,0.2994389139323178,0.6579780539359116,0.7875939085904615,0.2268843629976036,0.466185469663235,0.4405078160797553,0.4897920783134854,0.6410694209079468,0.2760264880003296,-0.05340414458502345,0.2510135503318074,0.6171322430274089,999.2673992673992,795.3846153846154,780.0732600732601,817.948717948718,759.1208791208792,-0.183350,0.137329,0.956970,1.226196,-5.256195,-4.508514,1,2,1,1,2,30.000000
2023-09-13 18:18:19.024,,,,,,,,,,,,,,,,,,,,,,,,,,,,,,,,,,,,,,/muse/elements/blink
2023-09-13 18:18:19.568,0.07741022097023993,0.772857670456459,0.7855542072712123,0.5080200232852702,0.3653674649910751,0.6278588169893458,0.654016378158414,0.4003723758031585,0.5252626255178466,0.4697696942257915,0.7875637684910107,0.2268843629976036,0.5574966203084437,0.2817315291516304,0.4892019562434728,0.6410694209079468,0.6496961671895665,-0.2160846672599423,0.2503953664558685,0.6171322430274089,847.7655677655678,782.893772893773,796.996336996337,796.996336996337,828.8278388278388,-0.190430,0.128296,0.957886,1.121521,-4.179535,4.381409,1,1,1,1,1,30.000000
2023-09-13 18:18:20.580,0.05499319126452476,0.6957324410262274,0.9082160605106868,1.3215985296437,0.3367635096006827,0.6246104264680326,0.4858737914872811,0.8412585678529989,0.6218512465216599,0.6370880216033868,0.4020429601456781,0.8768362887431994,0.6721784648248283,0.1955917467227839,0.0010482300039946,0.6932472036733114,0.6133071642458907,-0.1688391755471028,-0.125239140388327,0.5073311163041859,746.6300366300367,789.3406593406594,785.3113553113553,788.9377289377289,767.1794871794872,-0.095337,0.127930,0.968750,-1.226196,-7.805786,-2.886047,1,1,1,1,1,30.000000
2023-09-13 18:18:21.140,,,,,,,,,,,,,,,,,,,,,,,,,,,,,,,,,,,,,,/muse/elements/blink
2023-09-13 18:18:21.569,0.412628814939453,0.6141903409538737,0.6855093454524747,1.270606062002041,0.3906220690357728,0.471460369761027,0.3756323154827726,0.4989199848025973,0.4501293504292751,0.6166898492034901,0.5322784105548104,0.6161203025627762,0.7588348008770537,0.08813644320246433,0.2079314032758564,0.8008307244542644,0.4762236876122126,-0.2962406271521777,-0.06789042291010444,0.4453830985631179,901.3553113553114,795.3846153846154,783.6996336996338,795.3846153846154,815.934065934066,-0.139893,0.137146,0.959473,0.822449,-0.127106,-1.846771,1,1,1,1,1,30.000000
2023-09-13 18:18:22.570,0.6691756046456981,0.4431104386398192,0.2333315757148151,1.270606062002041,0.3484732850980063,0.4658780583426056,0.2315428247143638,0.4989199848025973,0.3275516908525928,0.4647823666895216,0.5704967591643466,0.6161203025627762,0.7894084456100074,0.1315512825804711,0.312079110991038,0.8008307244542644,0.3766026599814882,-0.3574380387566517,-0.01046623272551839,0.4453830985631179,810.6959706959707,792.5641025641025,790.952380952381,805.8608058608058,778.4615384615385,-0.145447,0.133911,0.956665,-1.248627,-1.502838,4.164581,1,1,1,1,1,30.000000
2023-09-13 18:18:23.568,0.5648186244073211,0.6374335793989567,0.9179856571456593,1.087367031186676,0.6410249313969718,0.5696606928998499,0.5221420070027103,0.8918246894370703,0.9096786105893975,0.7193686492096446,0.5717771860556253,0.8722394065735662,0.4549795336365459,0.3083699828773878,0.2148858508427295,0.7014244969258598,0.3443530737384925,-0.1447437179169158,-0.0431262729563758,0.3055783526487401,848.5714285714286,793.7728937728938,785.3113553113553,780.8791208791209,794.1758241758242,-0.131897,0.147522,0.958923,4.044952,-5.719757,-3.760834,1,1,1,1,1,30.000000
2023-09-13 18:18:24.569,0.4653187589547592,0.5818296661306999,0.5101205775765034,0.9798331698952584,0.4392682809977516,0.396496320598624,0.3199156438230976,0.6492368586065886,0.6812923810223188,0.6839055927107869,0.4198875192007318,0.9519713398210221,0.4147750306940695,0.2954201520320472,0.1554433501011143,0.7066539882192845,0.3359621901783936,-0.1490993797242723,-0.2167311709489971,0.4255758377441242,855.4212454212454,781.2820512820513,776.4468864468864,806.6666666666667,936.8131868131868,-0.169189,0.171509,0.959106,-1.300964,-3.267365,-4.381409,1,1,1,1,1,30.000000
2023-09-13 18:18:25.568,0.63884791665977,0.4379173812860757,0.7015772998185305,0.7755840741371594,0.4564126426558049,0.1985817081134013,0.349938675406486,0.4346355242101197,0.5086898893476455,0.392890585141374,0.3530547364616965,0.7888695224651825,0.3733850264133283,0.2205950121450908,0.2696293296763457,0.5518164004259006,0.1791536362431272,-0.4073984177841208,-0.164334891573866,0.3564574367778602,776.4468864468864,797.8021978021978,786.5201465201466,820.3663003663004,823.992673992674,-0.143433,0.146545,0.964478,0.807495,-2.302856,-8.209534,1,1,1,1,1,30.000000
2023-09-13 18:18:25.748,,,,,,,,,,,,,,,,,,,,,,,,,,,,,,,,,,,,,,/muse/elements/blink
2023-09-13 18:18:26.568,0.3861572134207518,0.8480172243395249,0.8724090596012207,0.9048602921950075,0.4451612832947452,0.5696912228555833,0.4493999903704803,0.705940488453679,0.2847766119668851,0.5145182562005314,0.3460272005454782,0.4905732694879014,0.3095929707789598,0.206549935524876,0.2800879864282049,0.3178501714522248,0.2348907638296489,-0.3257671827090524,-0.1287501663212027,0.1872795338017749,775.6410256410256,794.981684981685,782.4908424908425,780.0732600732601,770.8058608058608,-0.119019,0.138855,0.970276,3.828125,-3.244934,0.814972,1,1,1,1,1,30.000000
2023-09-13 18:18:27.568,0.7511051682327398,0.5488252802660212,0.7737140929754996,0.5982536034189642,0.7429899283459589,0.4491061760375272,0.4537885090132261,0.2683655758729309,0.7162504756527839,0.5518392948295062,0.2948471602552364,0.5472188522229757,0.3606434133832738,0.1884384740697594,0.04531267949043264,0.5132121695490535,0.0481831973044777,-0.2703902043262333,-0.3320175745383709,0.3592109146930874,792.1611721611722,791.3553113553114,797.3992673992674,790.1465201465202,753.0769230769231,-0.101501,0.118225,0.974609,1.121521,-5.129089,-2.871094,1,1,1,1,1,30.000000
2023-09-13 18:18:28.577,0.550228041015968,0.2404067928965271,0.4094440411746138,0.3595012622874557,0.4311335154067887,0.2524292418795591,0.1097263369852832,0.1530661060880698,0.6477168821908019,0.2670865611466635,0.4228883934807331,0.5321970646438322,0.3672306509966459,0.1671461984584941,0.04751028657225537,0.3968389089818759,0.07322269574712609,-0.2843859223668165,-0.2092467610553086,0.2377321566687657,636.2271062271062,790.1465201465202,793.3699633699634,757.1062271062272,854.2124542124542,-0.085510,0.110962,0.971191,2.923431,-4.231873,0.747681,1,1,1,1,1,30.000000
2023-09-13 18:18:29.568,0.9002305177387153,0.279631240161637,0.5415026143057402,0.781656377402406,0.3724972312732148,0.2169553200665538,0.05932602124291663,0.293297511007061,0.9546035160343721,0.3795999928445854,0.3875514405402684,0.764726335833211,0.4372211062299858,0.1187989139318317,0.06109652874699133,0.5163841675910078,0.04819612353958028,-0.2892157099438852,-0.2463824419398574,0.2997152281281946,716.007326007326,790.1465201465202,803.8461538461539,804.6520146520147,664.4322344322344,-0.104126,0.146301,0.978638,1.510315,-2.736511,1.443024,1,1,1,1,1,30.000000
2023-09-13 18:18:29.579,,,,,,,,,,,,,,,,,,,,,,,,,,,,,,,,,,,,,,/muse/elements/blink
2023-09-13 18:18:30.568,1.114960194465824,0.3550314690385352,0.8312940316173495,1.112333847020552,0.5399063472691664,0.1790452196723594,0.6062973312091056,0.5100913349517135,0.9546035160343721,0.419848056004878,0.375752790727052,0.764726335833211,0.5722401481012607,0.2617134430741241,0.09343298510227738,0.710615629883862,-0.06506696938545625,-0.07940780188290258,-0.1885937116824108,0.3295641252365804,717.6190476190476,790.952380952381,801.4285714285714,786.1172161172161,667.2527472527473,-0.093750,0.139893,0.971558,1.099091,-5.218811,-2.773895,1,1,1,1,1,30.000000
2023-09-13 18:18:31.568,1.037124546591517,0.3683950912403899,0.717350454978352,1.209482555335059,0.6177687276371154,0.2082519405779115,0.2814511066125144,0.5429985432352679,0.8044128282017031,0.6353661208958171,0.5378500144849611,0.7028536528005646,0.5266727255876986,0.1691805008665714,0.2106242051913108,0.602407710089673,0.03305461509746881,-0.1417522642407521,-0.1457470194973349,0.2000357681375036,634.6153846153846,788.9377289377289,790.952380952381,773.6263736263736,829.6336996336996,-0.107300,0.152771,0.974121,0.343933,-4.157104,-3.058014,1,1,1,1,1,30.000000
2023-09-13 18:18:32.568,0.9282708111633747,0.3793372140152117,0.4556875707207986,1.079338208348955,0.47086543339486,0.122928641902378,-0.01985122067188308,0.4791882709653831,0.8024457498728238,0.5903578694876823,0.3591529685113023,0.6647363649853063,0.4390206621914821,0.07864870664796607,0.155607590101958,0.4304555015568132,0.05636407005721472,-0.2124646714728638,-0.1049225118791173,0.1436807679312358,641.4652014652015,797.3992673992674,803.8461538461539,770,587.4725274725275,-0.081543,0.152954,0.971985,1.697235,-4.329071,1.226196,1,1,1,1,1,30.000000
2023-09-13 18:18:33.577,0.8167637314962259,0.5499688114807767,0.5942136361571883,0.8684297497294692,0.5510116176180149,0.3638500036638688,0.4125273305408477,0.8627119459386301,0.6146107158582004,0.4605136663965742,0.5777633124829842,0.8914516320505236,0.3026218302470314,0.073371728089352,0.1690161663738541,0.6317943918933611,0.06735410323156345,-0.3297685426667632,-0.134932945222358,0.1121529831479877,684.5787545787546,791.3553113553114,794.1758241758242,780.8791208791209,725.2747252747253,-0.072815,0.133484,0.975403,2.751465,-4.530945,0.403748,1,1,1,1,1,30.000000
2023-09-13 18:18:34.568,0.7979794238225238,0.6915969470243839,0.5285609377201296,0.6940456659311232,0.4915866708492506,0.1636750309940845,0.317045179398547,0.7174472705512169,0.5803781313018872,0.3432372351274028,0.5715016858889517,0.9062581402207542,0.2578138135837016,0.08039679584938844,0.05566638915192554,0.5637226383566525,0.08639627037325655,-0.2422964424029868,-0.1427633385998019,0.1160052420473048,672.893772893773,782.4908424908425,796.996336996337,798.6080586080586,731.3186813186813,-0.078796,0.135193,0.974976,-1.084137,-0.254211,9.876862,1,1,1,1,1,30.000000
2023-09-13 18:18:35.404,,,,,,,,,,,,,,,,,,,,,,,,,,,,,,,,,,,,,,/muse/elements/blink
2023-09-13 18:18:35.573,0.6826185195832378,0.7902614414787241,0.8062154123371543,0.667270908171494,0.3727829434013241,0.2453382684001713,0.3127222710170356,0.571063083841078,0.8108828360162517,0.5629080207521484,0.632051363591379,0.6014143411855131,0.4273613562485427,0.3082842549482782,0.08716795130126086,0.5180535008134457,0.1524915006214771,-0.1453344632874329,-0.2677408719911375,0.1631144144171855,678.9377289377289,790.5494505494506,792.5641025641025,783.6996336996338,689.0109890109891,-0.111938,0.161987,0.966614,-1.203766,-1.457977,-3.686066,1,1,1,1,1,30.000000
2023-09-13 18:18:36.568,0.8481963836675904,0.8708778573178066,0.8091101585254338,0.6672914768626624,0.7887420060246271,0.3562552266616204,0.373920666840222,0.5917375377069988,0.9784675540397655,0.5983638574996929,0.6962401809124795,0.4980007938644496,0.6002516429727478,0.2075138291607784,0.3075947904721766,0.4580829657817502,0.008254373396653671,-0.05341633544707754,-0.2141974245560613,0.1641859944761406,718.8278388278388,809.8901098901099,796.1904761904763,787.3260073260074,696.6666666666667,-0.101196,0.137573,0.967285,1.091614,-2.691650,0.224304,1,1,1,1,1,30.000000
2023-09-13 18:18:37.574,0.8278909206336699,0.6863020857230354,0.4811131467170705,0.5820360797248384,0.691555136606501,0.1151277542081946,0.243117925053804,0.5207668999426281,0.851526252845994,0.4983304676008715,0.5150791816636653,0.8021271683758271,0.4489287860151883,0.1513065804509278,0.2037289365083122,0.6110606173704696,0.1865448981045129,-0.2176382673268226,-0.08158468829291479,0.33074272436232,647.9120879120879,794.5787545787546,788.1318681318681,785.3113553113553,679.7435897435897,-0.092407,0.123779,0.970215,2.138367,-3.536530,-1.891632,1,1,1,1,1,30.000000
2023-09-13 18:18:38.024,,,,,,,,,,,,,,,,,,,,,,,,,,,,,,,,,,,,,,/muse/elements/blink
2023-09-13 18:18:38.565,0.8764043313139918,0.8982066480757306,0.663971135671642,0.5603960721550418,0.827326947734363,0.2571919569540456,0.4220167264120699,0.5726121213305361,0.8850295183591758,0.5210014084739034,0.4490245621824143,0.7766767900815226,0.3903472623355995,0.1371723870830431,0.1371852550061097,0.5906263186510126,0.2480808888224877,0.019816332388051,-0.08635739007988388,0.3131318020613134,688.2051282051282,793.7728937728938,789.7435897435897,805.0549450549451,668.0586080586081,-0.115662,0.142883,0.975952,3.708496,-3.730927,2.175751,1,1,1,1,1,30.000000
2023-09-13 18:18:39.048,,,,,,,,,,,,,,,,,,,,,,,,,,,,,,,,,,,,,,/muse/elements/blink
2023-09-13 18:18:39.563,0.9761675401306439,0.6336016289349544,0.691042175878425,0.6503228116037474,0.8260381008746004,-0.1156770982999876,0.5055923271444738,0.6053125647034204,0.8070263709489641,0.3725468640145059,0.4669348991376427,0.6292181088666406,0.2823170192206132,0.1749475396990805,0.1581310869503859,0.5734456304278227,0.2779643874990576,-0.05206700694343672,-0.2177030588171606,0.3022628505043803,651.941391941392,799.8168498168499,787.7289377289378,764.7619047619048,650.7326007326008,-0.108032,0.165588,0.962280,11.738586,-5.099182,10.557251,1,1,1,1,1,30.000000
2023-09-13 18:18:40.561,1.166171619329359,0.7361346016160202,0.8952913726130405,0.9312650608871058,0.5220226349665151,0.02439298914954672,0.5312370799811739,0.468446690339352,0.623532182784897,0.3306565483828134,0.4086614201518554,0.8426440916275779,0.3649087261481678,0.2026178523714688,0.1236370471633308,0.630230055222476,0.1857598570811228,-0.008165488361038276,-0.2294915001057572,0.5714978485909603,646.7032967032967,792.967032967033,788.5347985347986,767.5824175824176,662.8205128205128,-0.104675,0.149048,0.968079,6.654358,-2.228088,4.261780,1,1,1,1,1,30.000000
2023-09-13 18:18:41.560,0.9126375885385686,0.7357050303180527,0.8412878912163115,0.9279600378662308,0.4529762994672608,0.4421706744059667,0.1152117940247606,0.4870533745581413,0.6907824402444263,0.4382042697944883,0.5302621833281872,0.8426440916275779,0.2677250815970395,0.1653752243312596,0.1596767085454341,0.5995423032846657,0.1609200474038389,-0.04536139919960535,-0.07069241076774163,0.4756848816515754,681.3553113553114,800.2197802197802,802.2344322344322,799.0109890109891,660.8058608058608,-0.078552,0.118530,0.970215,1.742096,-7.686157,-4.493561,1,1,1,1,1,30.000000
2023-09-13 18:18:42.562,0.635651650377178,0.5646792617667391,0.8286138365566877,0.8032250088111729,0.4408243160212476,0.3057503002335127,0.330051770928742,0.6741222031997089,0.375606868753621,0.5554023655779022,0.5135996369639916,0.6009764065584741,0.2917452872808853,0.1717638432660719,0.1891472227621158,0.4855452384834045,0.2124293857554408,-0.2014384930343025,-0.1044612827334363,0.2442714835614427,733.7362637362637,799.0109890109891,793.3699633699634,788.5347985347986,916.2637362637363,-0.102661,0.138245,0.978760,4.007568,-0.343933,3.708496,1,1,1,1,1,30.000000
2023-09-13 18:18:43.556,0.7604264715596214,0.6749601528998159,0.3202304192402187,0.6758473574258089,0.6618716975242611,0.191294438904311,0.2584343977438174,0.6550714209937837,0.7669444788111478,0.4572048482443216,0.4252283774110395,0.4545340145592938,0.3418782752101134,0.1532913500258725,0.2272234699599724,0.4660608674881637,0.09190505419463921,-0.1964782741897577,-0.1879009700831774,0.4022740452775905,677.7289377289377,793.3699633699634,792.967032967033,790.1465201465202,815.5311355311355,-0.073914,0.092773,0.986450,0.373840,-5.555267,-3.282318,1,1,1,1,1,30.000000
2023-09-13 18:18:44.554,0.2866354382042475,0.7235862251329281,0.5999694393934984,0.2987137941042388,0.7668044068825676,0.3820896371280733,0.05260849932507319,0.4273570491578492,0.6999827481796478,0.4933689300326409,0.5270581583578072,0.6213643048042338,0.395066784791396,0.09125296820720456,0.03715079040445621,0.6364463481406472,0.02850815853581981,-0.2938345974528036,-0.2725317876363467,0.3315314624006385,715.2014652014652,787.3260073260074,799.0109890109891,810.2930402930403,636.6300366300367,-0.117554,0.128418,0.973511,-0.441132,-7.050629,1.166382,1,1,1,1,1,30.000000
2023-09-13 18:18:45.121,,,,,,,,,,,,,,,,,,,,,,,,,,,,,,,,,,,,,,/muse/elements/blink
2023-09-13 18:18:45.553,0.7891202887031682,0.5737173768627418,1.016174620545648,0.4764395836192398,1.039033461806402,0.551078430539053,0.747185091194515,0.5757702653943892,0.9655708913437553,0.4018330839525842,0.8125800003302056,0.5303985450297362,0.4657925003484916,0.2298510548936481,0.1317754830225842,0.6627731459458482,-0.06284175506087619,-0.3268213155700163,-0.1652447837634101,0.2672968585666906,765.5677655677656,786.1172161172161,789.7435897435897,789.3406593406594,711.1721611721612,-0.146973,0.112366,0.967102,0.224304,0.179443,-5.151520,1,1,1,1,1,30.000000
2023-09-13 18:18:46.552,0.838362547045493,0.7735500754225145,0.8259730994098942,0.5435357137206271,0.8684568031038153,0.2933611619461843,0.6928590379674354,0.6100698690962666,0.893348461245938,0.3922547433695574,0.7765799627468501,0.5078280146390096,0.3733265183819072,0.2471278762908972,0.2105188760079431,0.6563530449173341,0.07017960953976603,-0.2821725335953466,-0.0545885647277138,0.2946245928118353,694.2490842490843,790.952380952381,778.8644688644689,794.1758241758242,819.96336996337,-0.167297,0.108337,0.966187,7.932892,2.041168,4.530945,1,1,1,1,1,30.000000
2023-09-13 18:18:47.165,,,,,,,,,,,,,,,,,,,,,,,,,,,,,,,,,,,,,,/muse/elements/blink
2023-09-13 18:18:47.551,0.7191881940495991,0.6882656645194779,0.7527256874929604,0.9351307582135568,0.1395916412777618,0.3835108634803084,0.3558116100392937,0.4407932159961221,0.648667137300023,0.5525043875387187,0.4453481494112347,0.8911383291829387,0.3837124350382374,0.110156095021308,0.2706660890172073,0.5491760409960035,0.003325391919362151,-0.2997286297734746,-0.1144385895591194,0.2372981130649158,722.0512820512821,783.2967032967033,793.7728937728938,813.919413919414,731.3186813186813,-0.206787,0.097290,0.963928,2.796326,5.308533,-7.207642,1,1,1,1,1,30.000000
2023-09-13 18:18:48.555,0.7792633796629267,0.7039676151785775,0.5627359670280407,0.7932345374112403,0.0893093472265315,0.09499092183899875,0.2743926653384913,0.5285759348860691,0.1733405021916485,0.3710256528393591,0.692822788325493,0.3402165224965993,0.4283826037559397,-0.01342390303137738,0.1269043181651725,0.4407425754050581,-0.0330820254698652,-0.1637314710788504,-0.179138858002521,0.3303378304750922,647.1062271062272,781.2820512820513,784.9084249084249,768.7912087912088,545.9706959706959,-0.204529,0.094910,0.954224,5.712280,-0.620575,3.050537,1,1,1,1,1,30.000000
2023-09-13 18:18:49.548,0.8019087752048939,0.606048675593452,0.4500318645222477,0.8270385446700653,0.09391623545947625,0.2451450510615564,0.178507800204583,0.5446386299828525,0.1630455437957282,0.372891101745485,0.6752131438587233,0.3500409515515532,0.411061908715429,-0.002645932254454759,-0.001755144658900962,0.4188234467874692,-0.0459441537671303,-0.2762741609788663,-0.3339599543914018,0.327203727280528,676.9230769230769,790.1465201465202,793.7728937728938,806.2637362637363,905.7875457875458,-0.186707,0.083679,0.965149,3.185120,-2.213135,-0.134583,1,1,1,1,1,30.000000
2023-09-13 18:18:50.185,,,,,,,,,,,,,,,,,,,,,,,,,,,,,,,,,,,,,,/muse/elements/blink
2023-09-13 18:18:50.491,,,,,,,,,,,,,,,,,,,,,,,,,,,,,,,,,,,,,,/muse/elements/blink
2023-09-13 18:18:50.547,0.6891767002816859,0.5318702844755749,0.5094467123670974,0.8143970836363142,0.01205838522980407,0.3366437878922037,0.2792910024409096,0.6149867430142603,0.170674110707508,0.3274914904112877,0.3532868548354953,0.4871185003095966,0.3364605745924164,-0.1117418998728542,0.04218158079567312,0.3992476346438792,0.02256313930189712,-0.3727629118406978,-0.3039824770446546,0.4187681237806806,761.1355311355312,791.3553113553114,780.8791208791209,792.967032967033,742.1978021978023,-0.209106,0.154175,0.948181,3.902893,-2.871094,-2.250519,1,1,1,1,1,30.000000
2023-09-13 18:18:50.883,,,,,,,,,,,,,,,,,,,,,,,,,,,,,,,,,,,,,,/muse/elements/blink
2023-09-13 18:18:51.546,0.6891767002816859,0.5553668166715919,0.9565333977624946,0.8143970836363142,0.01205838522980407,0.3725633156609941,0.7230062369351395,0.6149867430142603,0.170674110707508,0.3562462318616599,0.4045461065127823,0.4871185003095966,0.3364605745924164,0.05209070405607279,-0.003060936303410503,0.3992476346438792,0.02256313930189712,-0.3811812459414078,-0.4633699571327136,0.4187681237806806,855.8241758241759,781.2820512820513,793.3699633699634,840.1098901098901,776.8498168498169,-0.103333,0.136230,0.967041,1.278534,-12.710571,-11.162872,1,2,1,1,2,30.000000
2023-09-13 18:18:51.585,,,,,,,,,,,,,,,,,,,,,,,,,,,,,,,,,,,,,,/muse/elements/blink
2023-09-13 18:18:52.216,,,,,,,,,,,,,,,,,,,,,,,,,,,,,,,,,,,,,,/muse/elements/blink
2023-09-13 18:18:52.551,0.6891767002816859,0.7445684090229124,1.002676777612165,0.8143970836363142,0.01205838522980407,0.5338010358913781,0.5967519482604325,0.6149867430142603,0.170674110707508,0.5423676247218491,0.4410808166091771,0.4871185003095966,0.3364605745924164,0.1049790495097006,0.01647978492577393,0.3992476346438792,0.02256313930189712,-0.3794709251655613,-0.4744123194469149,0.4187681237806806,749.047619047619,794.5787545787546,790.1465201465202,803.4432234432235,894.1025641025641,-0.020081,0.131165,0.980835,2.459869,-6.370239,-0.022430,1,2,1,1,2,30.000000
2023-09-13 18:18:53.544,0.6891767002816859,0.5732133276454114,0.5837408410943246,0.8143970836363142,0.01205838522980407,0.2342089114924584,0.02504676122243484,0.6149867430142603,0.170674110707508,0.4454734079040937,0.4100026006981503,0.4871185003095966,0.3364605745924164,0.03157327039152866,0.1251882184591176,0.3992476346438792,0.02256313930189712,-0.4070994104826046,-0.3206868125134856,0.4187681237806806,768.7912087912088,788.1318681318681,787.7289377289378,795.7875457875458,600.7692307692308,-0.005249,0.118835,0.972107,2.340240,-2.758942,1.443024,1,2,1,1,2,30.000000
2023-09-13 18:18:54.532,,,,,,,,,,,,,,,,,,,,,,,,,,,,,,,,,,,,,,/muse/elements/blink
2023-09-13 18:18:54.543,0.8390941702287119,0.4570204257104298,0.8282247403162105,0.8272423395313266,0.3362819095874203,0.1794378066806787,0.07808697865793142,0.5260159652996498,0.2638382632357922,0.4822551255517678,0.3480407678031982,0.6443882791230197,0.3760704939068155,0.07265785741436774,0.1751880497548488,0.4433605119995995,-0.1746802606189153,-0.4467750632512562,-0.3719051540826085,0.1667977741775373,737.7655677655678,788.1318681318681,796.5934065934066,807.4725274725275,654.3589743589744,-0.045898,0.113831,0.975037,3.140259,5.839386,3.140259,1,1,1,1,1,30.000000
2023-09-13 18:18:55.252,,,,,,,,,,,,,,,,,,,,,,,,,,,,,,,,,,,,,,/muse/elements/blink
2023-09-13 18:18:55.553,0.8390941702287119,0.2553428930122542,0.7036529842758853,0.9328109214496686,0.3362819095874203,0.2996263875334826,0.2508418818898375,0.2758752538402571,0.2638382632357922,0.3944606449407323,0.373084742015075,0.458000236332052,0.3760704939068155,0.0404554829909729,0.1049787223716265,0.4474903977545999,-0.1746802606189153,-0.4353521083495091,-0.3267214198328101,0.1457461659781583,733.3333333333334,790.5494505494506,780.0732600732601,787.3260073260074,770.8058608058608,-0.161682,0.148499,0.959045,1.600037,-2.796326,-2.385101,1,1,1,1,1,30.000000
2023-09-13 18:18:56.176,,,,,,,,,,,,,,,,,,,,,,,,,,,,,,,,,,,,,,/muse/elements/blink
2023-09-13 18:18:56.542,0.8390941702287119,0.3705619739200502,0.8218869037910691,0.9328109214496686,0.3362819095874203,0.3467228586977217,0.4850227546538603,0.2758752538402571,0.2638382632357922,0.5032356639281309,0.3477167219379886,0.458000236332052,0.3760704939068155,0.1521880493382272,0.2454098790643504,0.4474903977545999,-0.1746802606189153,-0.3149619610059893,-0.1959757395875763,0.1457461659781583,794.981684981685,788.5347985347986,799.0109890109891,818.3516483516484,643.0769230769231,-0.273254,0.145935,0.936096,-2.041168,-9.390869,12.030182,1,1,1,1,1,30.000000
2023-09-13 18:18:57.541,0.8390941702287119,0.7568073024605653,0.820711848588574,0.9328109214496686,0.3362819095874203,0.4774857647944445,0.4812857606149469,0.2758752538402571,0.2638382632357922,0.5981738439707915,0.7521508019623071,0.458000236332052,0.3760704939068155,0.1520467083965052,0.2303328970986041,0.4474903977545999,-0.1746802606189153,-0.2205530430951925,-0.1735486225610486,0.1457461659781583,686.5934065934066,813.5164835164835,771.6117216117216,755.4945054945055,719.6336996336996,-0.166077,0.139709,0.953064,-0.478516,-9.203949,-11.013336,1,2,1,1,2,30.000000
2023-09-13 18:18:58.540,0.5470465034853543,0.8079333084474616,0.8003292109777218,1.193341769771168,0.5168035362012424,0.6648530884206769,0.7649788397538775,0.8548058687061836,0.04903441937694387,0.6054334341023542,0.6115334674547233,0.713147217716681,0.3233606574237692,0.1639617015805554,0.2908977468586659,0.6272285118699943,0.1009358544092837,-0.3377177823029607,-0.1454738574597495,0.3384095908046862,712.7838827838829,803.4432234432235,796.996336996337,801.025641025641,778.4615384615385,-0.110962,0.083801,0.976013,1.368256,-9.009552,-3.701019,1,1,1,1,1,30.000000
2023-09-13 18:18:59.540,0.6737071965199762,1.054845186478011,0.7605991014188292,0.8772532613236196,0.7035979508744457,0.7808366568318544,0.4861766483964473,0.821650866356758,0.4773835523969909,0.6033567335850503,0.5948951549215969,0.9043689919710285,0.286331306903944,0.1782223055830483,0.2038092934654944,0.4640102348432172,0.01599498231249629,-0.3572648951019249,-0.2607270111327746,0.3015995152692915,758.3150183150184,799.0109890109891,794.981684981685,783.2967032967033,594.3223443223443,-0.129639,0.077942,0.975952,1.981354,-3.798218,5.772095,1,1,1,1,1,30.000000
2023-09-13 18:19:00.540,0.814964679005038,1.049296473005167,0.8158604079462607,0.9442150072479132,0.7416024862391748,0.8154197299195945,0.3033664162186277,1.154265919485138,0.7759826055868591,0.6731748123964331,0.5466271603235544,1.098013848576468,0.2452745089178234,0.04774744809608807,0.1679295625514964,0.6334185792728944,0.04478125525426908,-0.3813773639971619,-0.2653677273933986,0.1105436879577566,803.4432234432235,780.4761904761905,781.6849816849817,785.7142857142858,752.6739926739926,-0.118530,0.122986,0.963989,3.843079,-3.334656,0.897217,1,1,1,1,1,30.000000
2023-09-13 18:19:01.542,0.8758424229033549,0.7070716808118633,0.9759452839379367,0.9755497368164251,1.003706144644867,0.534662177533778,0.5883965209795178,0.9901141606702308,1.027751267928634,0.6457361733027107,0.576719742205925,1.005171596140748,0.4625919214915871,0.1811713271310449,0.3101758147695269,0.6557279920327974,0.2971192733951111,-0.3001546160252667,-0.2916595940681387,0.1810273706983387,720.4395604395604,797.3992673992674,792.5641025641025,803.040293040293,831.2454212454213,-0.210144,0.121765,0.958679,1.540222,-2.213135,-8.815155,1,1,1,1,1,30.000000
2023-09-13 18:19:02.168,,,,,,,,,,,,,,,,,,,,,,,,,,,,,,,,,,,,,,/muse/elements/blink
2023-09-13 18:19:02.550,1.015652732437009,0.9123141266460255,0.8256081060312811,0.9982564365764095,1.159695595672553,0.4902647209087056,0.5630790727922451,0.9751737309391506,1.027751267928634,0.6961547380990365,0.7809465397786096,0.8821220837271038,0.5287262530477472,0.2421823520395804,0.2716479470255658,0.4766861307659835,0.3772103328912476,-0.07958360721005596,-0.2371278282426199,0.1295238032315884,652.7472527472528,793.7728937728938,783.6996336996338,775.2380952380953,678.9377289377289,-0.219421,0.113831,0.953125,0.022430,-3.858032,-6.265564,1,1,1,1,1,30.000000
2023-09-13 18:19:03.540,1.015652732437009,0.9616684554068897,0.8442230669514114,0.9982564365764095,1.159695595672553,0.3620631567883336,0.4557812865272102,0.9751737309391506,1.027751267928634,0.6404945323429592,0.75969211190895,0.8821220837271038,0.5287262530477472,0.2477430193782076,0.2513223465414605,0.4766861307659835,0.3772103328912476,-0.135225676178226,-0.1972318205726772,0.1295238032315884,686.5934065934066,790.952380952381,794.981684981685,787.3260073260074,610.8424908424909,-0.152161,0.121338,0.970093,5.562744,0.216827,4.396362,1,1,1,1,1,30.000000
2023-09-13 18:19:04.475,,,,,,,,,,,,,,,,,,,,,,,,,,,,,,,,,,,,,,/muse/elements/blink
2023-09-13 18:19:04.537,1.015652732437009,0.2759708304404152,0.6034045959421709,1.301671079271015,1.159695595672553,0.1941349747606995,0.2699165360039337,0.8709245550823937,1.027751267928634,0.4991307759025917,0.2356064038156644,0.7314166172032498,0.5287262530477472,0.09430757120310487,0.1595260610171914,0.4241474190857371,0.3772103328912476,-0.3726388457666486,-0.2920129515445823,0.2426752891329086,722.8571428571429,799.0109890109891,805.4578754578755,802.6373626373627,785.7142857142858,-0.166260,0.165283,0.970581,5.203857,-1.929016,8.217010,1,1,1,1,1,30.000000
2023-09-13 18:19:05.542,1.015652732437009,0.2808180128301228,0.755857306729629,1.371068010224582,1.159695595672553,0.04695732581010691,0.3261766209314756,0.9275675726526044,1.027751267928634,0.4202453353497003,0.499936055636749,0.7220008492047036,0.5287262530477472,0.175109671527591,0.1437374336500625,0.4517065830604483,0.3772103328912476,-0.3055028067547327,-0.1067177504614856,0.2119083983859365,745.8241758241759,794.981684981685,785.7142857142858,775.6410256410256,606.007326007326,-0.150574,0.141113,0.967834,-1.682281,-7.686157,-1.435547,1,1,1,1,1,30.000000
2023-09-13 18:19:06.537,0.7546171275123337,0.3424512039337334,0.7932153252765981,0.8826796594291563,0.9381303622903079,0.05156322797263616,0.219952197377699,1.029716663703458,0.9432474740079532,0.4407873007788629,0.407531833990359,0.8698330612913682,0.4556409256699652,0.1716034770054344,0.06438753748841348,0.667800922663167,-0.02490518540632835,-0.2591636901158363,-0.2221412816582172,0.1329715127467261,814.7252747252747,801.8315018315019,798.2051282051282,810.2930402930403,1023.040293040293,-0.173035,0.130005,0.963623,1.443024,1.360779,-0.396271,1,1,1,1,1,30.000000
2023-09-13 18:19:06.827,,,,,,,,,,,,,,,,,,,,,,,,,,,,,,,,,,,,,,/muse/elements/blink
2023-09-13 18:19:07.536,0.8199294044653042,0.6215561150125944,0.9031335724743076,0.9822346040659719,0.6782045464885602,0.4014369743077096,0.3375386952310785,0.7771361459587791,0.7312814469838027,0.4627785621334461,0.4754836835871821,0.822461347370427,0.3997560519059958,0.2755297142932654,0.2469466739728823,0.6144575314792381,0.02552684817149672,-0.195534692942046,0.03956890560170856,0.05645432609545397,703.919413919414,799.4139194139194,803.8461538461539,781.2820512820513,725.6776556776557,-0.308044,0.125610,0.926025,1.465454,-5.069275,-2.833710,1,1,1,1,1,30.000000
2023-09-13 18:19:07.844,,,,,,,,,,,,,,,,,,,,,,,,,,,,,,,,,,,,,,/muse/elements/blink
2023-09-13 18:19:08.537,0.8234263975486349,0.6842141545691734,0.8167087541368895,1.008240364670033,0.5737797429691908,0.5617746807550664,0.4541084028861526,0.6624976626471776,0.6901732353326917,0.4262144769119131,0.5906601547883876,0.79142346000971,0.3761593849897231,0.2909946894110623,0.2276561642842151,0.5934139523940082,-0.005841152320269024,-0.1758932441686579,0.07615626368897603,0.06219219308040608,732.5274725274726,791.7582417582418,791.3553113553114,779.6703296703297,713.5897435897436,-0.261169,0.144897,0.942078,-0.007477,-5.824432,0.800018,1,1,1,1,1,30.000000
2023-09-13 18:19:09.535,0.7171584190320844,0.5526185611240021,0.6679502991540018,0.7856076899471544,0.9964839955166991,0.3886435822280469,0.3757852447122374,1.032258677023166,0.7968475516564805,0.5454128375021904,0.3879255337381577,0.4037978826219655,0.423832405557153,0.1450147934792225,0.0865675429197711,0.5967304193501567,0.08653101204622676,-0.3433482025041616,-0.3875096415953356,0.2406719891155873,674.5054945054945,797.8021978021978,800.2197802197802,787.7289377289378,640.2564102564103,-0.250854,0.130859,0.948486,3.730927,-2.616882,-2.983246,1,1,1,1,1,30.000000
2023-09-13 18:19:10.536,0.719717941296916,0.5075281221578676,0.5418405766372414,0.7740994295748875,0.7892001975806108,0.02896119944854138,0.126165157501407,0.7200062559418612,0.7711203634106606,0.4233138606930878,0.2811459811574749,0.4806647958914895,0.2771056732594115,0.04888913961919059,0.09154245671240034,0.5012160602370074,0.02449351998708254,-0.3911102318449673,-0.1590743775811347,0.2572208605084797,861.0622710622711,783.6996336996338,782.0879120879121,790.5494505494506,791.3553113553114,-0.220825,0.143372,0.954773,1.846771,-4.830017,-0.971985,1,1,1,1,1,30.000000
2023-09-13 18:19:11.541,0.6799448224208968,0.3393358516769644,0.6771452227775737,0.8599753162504878,0.5501752772905856,0.24079228855553,0.2153870959044584,0.4540680610765008,0.7433661571730285,0.4627196520139812,0.6189336230777575,0.4737596876580132,0.2325208828232937,0.03509616266393535,0.1979418308225318,0.5481424728637648,0.002826282635507233,-0.1587603615102232,-0.1146382505819295,0.1944268408891583,757.1062271062272,779.2673992673992,795.3846153846154,788.5347985347986,706.7399267399268,-0.298645,0.175415,0.942322,11.708679,1.958923,-7.835693,1,1,1,1,1,30.000000
2023-09-13 18:19:12.535,0.5984196554783169,0.7397784257168365,1.012493659801041,0.9222812065670855,0.3832971465283736,0.378495292412577,0.6296878313999655,0.3156799449828901,0.6770825665993182,0.5163691333679763,0.8474909248715156,0.3276835991609115,0.1310636224197662,0.1525183921640925,0.3033079905096152,0.6299104818514333,0.01748727527330421,0.00404195933942325,-0.1448118501178447,0.14076788609711,805.8608058608058,783.6996336996338,793.7728937728938,802.2344322344322,945.6776556776557,-0.258057,0.089966,0.943542,6.953430,-8.964691,2.796326,1,1,1,1,1,30.000000
2023-09-13 18:19:12.626,,,,,,,,,,,,,,,,,,,,,,,,,,,,,,,,,,,,,,/muse/elements/blink
2023-09-13 18:19:13.535,0.8160561550335289,0.4904167682108478,0.2846421909010872,1.020057183127061,0.8820145100668979,0.3623045167699359,0.2907207750547382,0.9700331610922677,0.8949600788929402,0.5321425765196998,0.413327699309132,0.9699024909165563,0.4264031429019496,0.1318257592770531,0.1821450174331907,0.8029264990589469,0.1377853701023754,-0.2748844456569713,-0.1619047072224959,0.5603721287163547,674.5054945054945,804.6520146520147,800.6227106227107,795.3846153846154,784.1025641025641,-0.219421,0.091125,0.964172,9.338531,-18.961182,25.705261,1,1,1,1,1,30.000000
2023-09-13 18:19:14.535,0.5882316114567711,0.8048065244338618,0.8291644217602173,0.7745220632148576,0.7388965848161703,0.462287430617634,0.6723735286877502,0.9005913232340311,0.6483361470972692,0.5162337301280455,0.6183818220691326,0.6461228687647463,0.396672392351405,0.1049406547999238,0.1695251449314358,0.9133799935877467,0.1995621278668865,-0.3071373075893074,-0.1413613245523775,0.8073580303828404,789.7435897435897,793.3699633699634,791.7582417582418,840.1098901098901,696.6666666666667,-0.233765,0.136169,0.950562,-0.142059,-0.598145,-2.422485,1,1,1,1,1,30.000000
2023-09-13 18:19:14.548,,,,,,,,,,,,,,,,,,,,,,,,,,,,,,,,,,,,,,/muse/elements/blink
2023-09-13 18:19:15.251,,,,,,,,,,,,,,,,,,,,,,,,,,,,,,,,,,,,,,/muse/elements/blink
2023-09-13 18:19:15.536,0.5882316114567711,0.7671219871487596,0.4168850427243095,0.7745220632148576,0.7388965848161703,0.2390155091541638,0.4641164346706957,0.9005913232340311,0.6483361470972692,0.5870583523570851,0.5931248932433524,0.6461228687647463,0.396672392351405,0.0651026640982222,0.3770468879589156,0.9133799935877467,0.1995621278668865,-0.3116654071815945,0.168660369238921,0.8073580303828404,561.2820512820513,821.1721611721612,803.040293040293,680.952380952381,705.1282051282052,-0.356628,0.096985,0.957275,5.600128,-6.908569,9.151611,1,1,1,1,1,30.000000
2023-09-13 18:19:16.471,,,,,,,,,,,,,,,,,,,,,,,,,,,,,,,,,,,,,,/muse/elements/blink
2023-09-13 18:19:16.533,0.5882316114567711,0.9036936063217818,0.4469881611851039,0.7745220632148576,0.7388965848161703,0.4263446693924212,0.757463967608395,0.9005913232340311,0.6483361470972692,0.5273736722286293,0.5844674162044118,0.6461228687647463,0.396672392351405,0.08534093175183241,0.6105244728269222,0.9133799935877467,0.1995621278668865,-0.152698053421942,0.4364912644000098,0.8073580303828404,690.6227106227107,795.7875457875458,788.9377289377289,789.3406593406594,668.8644688644689,-0.381592,0.111816,0.895020,0.695343,-2.325287,0.022430,1,2,1,1,2,30.000000
2023-09-13 18:19:17.490,,,,,,,,,,,,,,,,,,,,,,,,,,,,,,,,,,,,,,/muse/elements/blink
2023-09-13 18:19:17.534,0.5882316114567711,0.5975461902908676,0.5229354241332669,0.7745220632148576,0.7388965848161703,0.2587085772667144,0.2011585042141192,0.9005913232340311,0.6483361470972692,0.644426311803594,0.437945489831463,0.6461228687647463,0.396672392351405,0.3806021318200906,0.4911701272228614,0.9133799935877467,0.1995621278668865,0.1554502937301809,0.2303721906674756,0.8073580303828404,730.9157509157509,792.967032967033,792.967032967033,781.6849816849817,726.0805860805862,-0.284546,0.085693,0.947815,1.188812,-8.067474,2.998199,1,2,1,1,2,30.000000
2023-09-13 18:19:18.208,,,,,,,,,,,,,,,,,,,,,,,,,,,,,,,,,,,,,,/muse/elements/blink
2023-09-13 18:19:18.534,0.5882316114567711,0.8097202992746211,0.4773192885656387,0.7745220632148576,0.7388965848161703,0.09496375575815513,0.1905161834401513,0.9005913232340311,0.6483361470972692,0.7282585352501977,0.5499098055509946,0.6461228687647463,0.396672392351405,0.3536575388876245,0.2476366509804591,0.9133799935877467,0.1995621278668865,-0.1497244810007272,-0.1528088165167221,0.8073580303828404,795.7875457875458,798.6080586080586,794.981684981685,807.8754578754579,978.3150183150184,-0.264709,0.119873,0.933044,4.979553,-2.145844,3.730927,1,2,1,1,2,35.000000
2023-09-13 18:19:19.545,0.5882316114567711,0.792966361170098,0.4714010223138196,0.7745220632148576,0.7388965848161703,0.1031170686580714,0.3090637107989844,0.9005913232340311,0.6483361470972692,0.6341844371820229,0.432740513451741,0.6461228687647463,0.396672392351405,0.2262748712928297,0.1523940720167878,0.9133799935877467,0.1995621278668865,-0.220053918296169,-0.2130970181670303,0.8073580303828404,662.4175824175825,800.6227106227107,799.8168498168499,791.3553113553114,665.6410256410256,-0.253540,0.142700,0.944580,3.244934,-1.271057,3.364563,1,2,1,1,2,35.000000
2023-09-13 18:19:20.533,0.5537651080469611,0.550382091197508,0.432670517732016,0.465926840537103,0.7014337009600335,0.2079950412355948,0.2645186384214215,0.4909078663067363,0.8584070152555172,0.5943049861504346,0.3538554163581425,0.7260058460644307,0.3729978551812555,0.1677597211111196,0.1048035858141112,0.405478113433964,0.1571548786501132,-0.1953770168784386,-0.249733114165534,0.2196459660630372,701.5018315018315,793.3699633699634,781.6849816849817,784.1025641025641,663.6263736263736,-0.262207,0.143127,0.953491,1.271057,2.474823,-6.699219,1,1,1,1,1,35.000000
2023-09-13 18:19:20.817,,,,,,,,,,,,,,,,,,,,,,,,,,,,,,,,,,,,,,/muse/elements/blink
2023-09-13 18:19:21.544,0.5651805156197435,0.4608523023609812,0.690532200254754,0.5640947113673151,0.7510819349391178,0.238020132531186,0.4375010985975247,0.5857406357362829,0.8282256415558761,0.6619835177580621,0.4172402554899792,0.2046383038859702,0.422150347988657,0.29148328748738,0.353001862170693,0.362622065810186,0.1883937935060427,-0.08418131879158407,0.05218980047327907,0.2248376246727956,612.0512820512821,792.1611721611722,800.6227106227107,776.4468864468864,635.8241758241759,-0.266174,0.084900,0.927429,0.508423,-7.805786,-6.310425,1,1,1,1,1,35.000000
2023-09-13 18:19:22.533,1.232647271882857,0.7326019407223583,0.5926009031116122,0.5030803164727919,1.104788963021057,0.2817277280124301,0.4053139682637883,0.5858568045068654,0.6332864480568734,0.7779028867902283,0.4173060365314793,0.1178806899698198,0.289053121431608,0.2181619409536055,0.3152377229782092,0.3404068765101682,-0.05088864352470869,-0.1388123110959724,-0.02195125315034821,0.2423512797708982,665.6410256410256,790.1465201465202,799.4139194139194,782.4908424908425,620.1098901098901,-0.235107,0.102112,0.937012,5.682373,-4.904785,5.450592,1,1,1,1,1,35.000000
2023-09-13 18:19:23.168,,,,,,,,,,,,,,,,,,,,,,,,,,,,,,,,,,,,,,/muse/elements/blink
2023-09-13 18:19:23.533,1.232647271882857,0.5088595610149016,0.2991759300184429,0.5030803164727919,1.104788963021057,0.1300838419150688,0.1165777629710014,0.5858568045068654,0.6332864480568734,0.531826996570599,0.540210475316343,0.1178806899698198,0.289053121431608,0.01368205240312571,0.1161723002485148,0.3404068765101682,-0.05088864352470869,-0.3596401685970164,-0.2974787056823682,0.2423512797708982,715.2014652014652,799.4139194139194,800.6227106227107,794.981684981685,673.6996336996338,-0.179138,0.107666,0.965332,3.095398,-3.715973,-2.676697,1,1,1,1,1,35.000000
2023-09-13 18:19:24.410,,,,,,,,,,,,,,,,,,,,,,,,,,,,,,,,,,,,,,/muse/elements/blink
2023-09-13 18:19:24.533,1.232647271882857,0.5448366753990469,0.5213391874582254,0.5030803164727919,1.104788963021057,0.2867143772653793,0.1757031386926374,0.5858568045068654,0.6332864480568734,0.5674479026419929,0.535332881006601,0.1178806899698198,0.289053121431608,0.1239612638676285,0.1655860980522036,0.3404068765101682,-0.05088864352470869,-0.3175719105107686,-0.3196032110816761,0.2423512797708982,648.7179487179487,776.4468864468864,792.1611721611722,790.5494505494506,637.032967032967,-0.162537,0.160095,0.958191,5.585175,-6.003876,5.495453,1,1,1,1,1,35.000000
2023-09-13 18:19:25.504,,,,,,,,,,,,,,,,,,,,,,,,,,,,,,,,,,,,,,/muse/elements/blink
2023-09-13 18:19:25.532,1.232647271882857,0.5265395808711298,0.5534602004131595,0.5030803164727919,1.104788963021057,0.3157333002867635,0.2688751267235869,0.5858568045068654,0.6332864480568734,0.459313741403817,0.3173817106143509,0.1178806899698198,0.289053121431608,0.1654266133802756,0.220711453272752,0.3404068765101682,-0.05088864352470869,-0.2801403898940452,-0.2311995070990686,0.2423512797708982,693.4432234432235,796.1904761904763,815.5311355311355,814.3223443223443,621.3186813186813,-0.148987,0.147583,0.959778,1.398163,-3.484192,-0.785065,1,2,1,1,2,35.000000
2023-09-13 18:19:26.536,1.232647271882857,0.6888962978247876,0.7019539033735227,0.5030803164727919,1.104788963021057,0.5810566582174262,0.3017205318861074,0.5858568045068654,0.6332864480568734,0.6840469445333887,0.5358403828830057,0.1178806899698198,0.289053121431608,0.09055030587972683,0.2067075640575937,0.3404068765101682,-0.05088864352470869,-0.2993744649650237,-0.1711076527463407,0.2423512797708982,654.7619047619048,777.2527472527473,823.1868131868132,786.1172161172161,671.2820512820513,-0.150940,0.124390,0.965210,0.702820,-2.459869,0.082245,1,2,1,1,2,35.000000
2023-09-13 18:19:27.544,1.232647271882857,0.9586935812201444,0.9920324012975561,0.8018447785789421,1.104788963021057,0.5519374190388503,0.6405157107929544,1.00318809449701,0.6332864480568734,0.771327685149606,0.6924471872287348,0.5507639325110351,0.289053121431608,0.1696299150794689,0.1671789718966744,0.4302072802640829,-0.05088864352470869,-0.2302686909037602,-0.235509639538296,0.215169387382277,637.032967032967,796.1904761904763,804.6520146520147,790.5494505494506,728.0952380952381,-0.134583,0.122070,0.960754,-1.383209,-3.708496,-0.874786,1,1,1,1,1,35.000000
2023-09-13 18:19:28.533,0.951334288555779,0.7430249254452913,0.9617740640629093,0.9818601124846841,0.8097268048129814,0.3204153698107197,0.6243358745605907,0.8978055456282564,0.8122581694158765,0.5237263279128951,0.704712237562092,0.7910366212964918,0.3004790939650435,0.1503479532033068,0.11973158943097,0.5106592874742458,0.07917553190041364,-0.4095891701503914,-0.2150162074915832,0.2259380748787831,649.1208791208792,797.3992673992674,795.3846153846154,781.2820512820513,613.2600732600732,-0.128052,0.103149,0.962952,-2.048645,-6.213226,-5.562744,1,1,1,1,1,30.000000
2023-09-13 18:19:29.262,,,,,,,,,,,,,,,,,,,,,,,,,,,,,,,,,,,,,,/muse/elements/blink
2023-09-13 18:19:29.532,1.066924708023763,0.5177781150549338,0.747400625993025,1.30938461904018,0.8453729031887027,0.3874512565288341,0.3027606375399417,0.7128490439505406,0.841751314381936,0.557987606362345,0.5310053438515341,0.7698364121487332,0.3470157679198488,0.06116099440465814,0.234076875283184,0.6934929307322375,0.1147924686905504,-0.3774653246836595,-0.1337340632748014,0.265209545215277,676.1172161172161,793.3699633699634,799.8168498168499,780.0732600732601,669.2673992673992,-0.155457,0.158264,0.961487,2.586975,-0.000000,-1.271057,1,1,1,1,1,30.000000
2023-09-13 18:19:29.766,,,,,,,,,,,,,,,,,,,,,,,,,,,,,,,,,,,,,,/muse/elements/blink
2023-09-13 18:19:30.052,,,,,,,,,,,,,,,,,,,,,,,,,,,,,,,,,,,,,,/muse/elements/blink
2023-09-13 18:19:30.293,,,,,,,,,,,,,,,,,,,,,,,,,,,,,,,,,,,,,,/muse/elements/blink
2023-09-13 18:19:30.532,1.123705676768326,0.7383750343843598,0.9847463845412555,1.46542613550453,0.9708645277666497,0.3307912360738109,0.571674760042589,0.8420888543795444,0.9110723911801998,0.5565194706216869,0.6806253505007075,0.7598887361193035,0.3826276014817245,0.142415080719721,0.2355155206452361,0.7795858675264978,0.170229120853122,-0.3261777916265312,-0.1998638418496425,0.2778087550593736,523.8095238095239,830.0366300366301,803.4432234432235,682.967032967033,564.5054945054945,-0.154724,0.064331,0.984070,3.745880,-4.396362,2.228088,1,1,1,1,1,30.000000
2023-09-13 18:19:30.580,,,,,,,,,,,,,,,,,,,,,,,,,,,,,,,,,,,,,,/muse/elements/jaw_clench
2023-09-13 18:19:30.691,,,,,,,,,,,,,,,,,,,,,,,,,,,,,,,,,,,,,,/muse/elements/blink
2023-09-13 18:19:31.540,1.086407503020123,0.1925291021262502,0.6481356937794437,1.46542613550453,1.054934030762712,0.05088488892265321,0.7121509430643211,0.8420888543795444,0.8297114520921188,0.3059728598065344,0.3112473970214353,0.7598887361193035,0.324103208643699,0.1754859910863528,0.05753583210072799,0.7795858675264978,0.203638847928483,-0.2627087967795276,-0.273933398790169,0.2778087550593736,711.1721611721612,890.4761904761905,925.1282051282052,842.1245421245421,587.4725274725275,-0.179138,0.135254,0.957886,0.747681,-7.506714,-5.368347,1,1,1,1,1,30.000000
2023-09-13 18:19:32.542,1.086407503020123,0.1925291021262502,0.6481356937794437,1.46542613550453,1.054934030762712,0.05088488892265321,0.7121509430643211,0.8420888543795444,0.8297114520921188,0.3059728598065344,0.3112473970214353,0.7598887361193035,0.324103208643699,0.1754859910863528,0.05753583210072799,0.7795858675264978,0.203638847928483,-0.2627087967795276,-0.273933398790169,0.2778087550593736,693.8461538461538,826.007326007326,779.2673992673992,811.5018315018315,809.0842490842491,-0.092590,0.096130,0.976379,-0.284119,-6.609497,-4.478607,1,2,1,1,2,30.000000
2023-09-13 18:19:33.532,1.086407503020123,0.1925291021262502,0.6481356937794437,1.46542613550453,1.054934030762712,0.05088488892265321,0.7121509430643211,0.8420888543795444,0.8297114520921188,0.3059728598065344,0.3112473970214353,0.7598887361193035,0.324103208643699,0.1754859910863528,0.05753583210072799,0.7795858675264978,0.203638847928483,-0.2627087967795276,-0.273933398790169,0.2778087550593736,679.3406593406594,813.919413919414,804.6520146520147,814.7252747252747,751.0622710622711,-0.102112,0.138062,0.973267,4.157104,-3.566437,4.336548,1,2,1,1,2,30.000000
2023-09-13 18:19:34.531,1.086407503020123,0.3270228536857906,0.6481356937794437,1.46542613550453,1.054934030762712,0.2935567849932417,0.7121509430643211,0.8420888543795444,0.8297114520921188,0.3166797139225371,0.3112473970214353,0.7598887361193035,0.324103208643699,0.5722798314435227,0.05753583210072799,0.7795858675264978,0.203638847928483,0.3447415977806109,-0.273933398790169,0.2778087550593736,647.1062271062272,793.3699633699634,797.8021978021978,789.3406593406594,651.5384615384615,-0.112549,0.162659,0.963867,4.478607,0.299072,4.216919,1,2,1,1,2,30.000000
2023-09-13 18:19:35.540,0.6170464839879249,0.3350309684602865,0.765465415223647,0.5431785417922487,0.9311150913889359,0.4027708416657048,-0.1328112464549686,0.4527919296269872,0.7799829410745457,0.3396768213889471,0.5146757515413728,0.5892761165812103,0.5336038352810538,0.528320254270487,0.6044365751174275,0.5267882642213834,0.3396401147415736,0.1543609220624274,0.4363912325833561,0.1545415816611643,763.5531135531136,796.5934065934066,815.1282051282052,826.4102564102565,905.7875457875458,-0.169922,0.178345,0.955811,3.334656,-0.358887,9.779663,1,1,1,1,1,30.000000
2023-09-13 18:19:36.143,,,,,,,,,,,,,,,,,,,,,,,,,,,,,,,,,,,,,,/muse/elements/blink
2023-09-13 18:19:36.531,0.7441895027463423,0.7201189838609295,0.8401073055329543,0.6039171440127963,0.8563382479338477,0.5570501515601337,0.4375751503492319,0.5115204995602559,0.662836172159563,0.7173409771991596,0.6473855287909919,0.6007402301813815,0.5462050473761769,0.6787572213435659,0.4700436102268626,0.4195496147500297,0.3267676944985503,0.0792216566354956,0.2538986667893919,0.05490089483869683,730.5128205128206,797.3992673992674,807.4725274725275,818.3516483516484,990.4029304029305,-0.187317,0.121765,0.958496,-1.988831,-5.226288,-7.873077,1,1,1,1,1,30.000000
2023-09-13 18:19:37.532,0.8616184924555325,0.75816958782261,1.123503524995218,0.7052854628597816,0.6296641015255564,0.5210311938208896,0.6207179989185378,0.5045243470176556,0.1586414703434863,0.6882673388143394,0.5812588277115782,0.3593944460378903,0.6294552214656682,0.6019335580471447,0.4428304003986263,0.437609670794646,0.2833222047003423,0.1940330916339001,0.2660284815677318,0.07231567971660392,707.1428571428571,808.2783882783883,794.5787545787546,789.7435897435897,689.4139194139194,-0.132935,0.164124,0.964905,2.168274,-4.201965,-3.140259,1,1,1,1,1,30.000000
2023-09-13 18:19:37.976,,,,,,,,,,,,,,,,,,,,,,,,,,,,,,,,,,,,,,/muse/elements/blink
2023-09-13 18:19:38.220,,,,,,,,,,,,,,,,,,,,,,,,,,,,,,,,,,,,,,/muse/elements/blink
2023-09-13 18:19:38.540,0.8616184924555325,0.6364454127838269,1.057665566687926,0.7052854628597816,0.6296641015255564,0.4129734478286274,0.2897302472484349,0.5045243470176556,0.1586414703434863,0.391936401446922,0.2667076986421077,0.3593944460378903,0.6294552214656682,0.4417716227555679,0.489592211477865,0.437609670794646,0.2833222047003423,0.1206353265536097,0.2794909183672346,0.07231567971660392,838.901098901099,800.6227106227107,800.2197802197802,801.025641025641,847.7655677655678,-0.159363,0.161743,0.955078,4.441223,-0.934601,1.943970,1,1,1,1,1,30.000000
2023-09-13 18:19:38.814,,,,,,,,,,,,,,,,,,,,,,,,,,,,,,,,,,,,,,/muse/elements/blink
2023-09-13 18:19:39.532,0.8616184924555325,0.7079996131717877,0.3189142679566453,0.7052854628597816,0.6296641015255564,0.3412458586042369,0.3066730792819864,0.5045243470176556,0.1586414703434863,0.3792542172734697,0.5861350419191674,0.3593944460378903,0.6294552214656682,0.4558264611137404,0.4883794657453951,0.437609670794646,0.2833222047003423,-0.05973518286181571,0.2046323987137175,0.07231567971660392,801.8315018315019,783.6996336996338,772.8205128205128,808.2783882783883,809.0842490842491,-0.143555,0.195068,0.962402,5.084229,0.725250,3.955231,1,2,1,1,2,30.000000
2023-09-13 18:19:40.530,0.150934103012061,0.8367247786289798,0.63735319884694,0.552638953608543,0.2684883762742063,0.1795923646999008,0.3856524004736887,0.4496299586739479,0.1835298947491069,0.2698801707265223,0.766994990353292,0.7140465330764521,0.5240052258745068,0.3891110898199097,0.3971561059062731,0.5148909843434371,0.2344329804185749,-0.01052105149790988,0.2871799059362972,0.1149267286561723,779.6703296703297,794.981684981685,809.0842490842491,806.2637362637363,731.7216117216118,-0.114014,0.118103,0.973877,-1.547699,-5.540314,-6.138458,1,1,1,1,1,30.000000
2023-09-13 18:19:40.918,,,,,,,,,,,,,,,,,,,,,,,,,,,,,,,,,,,,,,/muse/elements/blink
2023-09-13 18:19:41.540,0.5038073671080143,0.7558767328016237,0.8156040224479479,0.7020375007588838,0.4481577944067764,0.4337432847118075,0.2750934595233542,0.5155939575492504,0.4478028704707154,0.2855232875717257,0.7533079908134965,0.657286992251932,0.4430545782984467,0.2208949159995843,0.2771932478223417,0.5251078014104283,0.3168963008635818,-0.06806061407630822,0.04119605456016832,0.1288792847746835,897.3260073260074,789.3406593406594,780.4761904761905,809.4871794871796,946.0805860805862,-0.118164,0.163452,0.969360,4.904785,-3.364563,1.472931,1,1,1,1,1,30.000000
2023-09-13 18:19:42.532,0.4670792930063943,0.1081136201707319,0.6633204508524218,0.7052633038977716,-0.03388109467664555,0.1471345769247959,-0.1479206499867862,0.1591455235727802,0.3136339377319022,0.3526211512306796,0.3507895593204327,0.37349686488809,0.3657066456575853,0.2870921059116373,0.1317697322345744,0.4578422125901872,-0.04036988153112075,-0.1169821998285502,-0.09840919957632865,0.2940050528725512,875.9706959706959,795.7875457875458,776.0439560439561,801.025641025641,852.6007326007326,-0.108887,0.152527,0.969788,0.814972,-4.007568,0.635529,1,1,1,1,1,30.000000
2023-09-13 18:19:43.270,,,,,,,,,,,,,,,,,,,,,,,,,,,,,,,,,,,,,,/muse/elements/blink
2023-09-13 18:19:43.531,0.7434266683434434,-0.06844751930414041,0.1343523465512224,0.8653482270944779,0.5172656579491242,0.0963255261926821,-0.1973110477719967,0.5271766491914487,0.3725645665601281,0.3139330370140566,0.09164285323088141,0.6079766116695945,0.3428519471902415,0.237270532245355,0.2793188760573315,0.4984819630611169,-0.02960237048102255,-0.07835996587462364,-0.06670170629275056,0.2734293225563079,858.2417582417582,793.3699633699634,792.5641025641025,804.6520146520147,856.6300366300367,-0.114136,0.144958,0.965820,4.149628,-3.357086,1.106567,1,1,1,1,1,30.000000
2023-09-13 18:19:44.531,0.8672907423101992,0.4926569237158911,0.3768364733320054,0.9048038024094709,0.7709597379190363,0.2230708518040936,0.05336272997926186,0.7391393809957998,0.184106202403526,0.3875542506024648,0.5309373694573077,0.5582157207997825,0.280424379495675,0.2094455083837395,0.2433562652707782,0.5152384052901685,-0.0278995488249196,-0.2781504887038453,-0.05674696431451581,0.2051898064523687,805.4578754578755,764.7619047619048,796.5934065934066,808.6813186813187,780.0732600732601,-0.117554,0.192078,0.960754,4.486084,1.801910,3.416901,1,1,1,1,1,30.000000
2023-09-13 18:19:45.535,0.8672907423101992,1.108602383514642,0.9065950053429859,0.7763400987162247,0.7709597379190363,0.4659772851408844,0.3846019815959237,0.9512702431205491,0.184106202403526,0.5775983974375341,0.6253248272762842,0.6877295299546923,0.280424379495675,0.2198526966140955,0.3791651352718347,0.3909201030304287,-0.0278995488249196,-0.1275711288203236,0.1296019761723815,0.13747927854123,879.5970695970697,807.0695970695971,760.3296703296703,741.7948717948718,827.2161172161173,-0.108459,0.137390,0.960144,2.639313,-2.564545,-0.807495,1,1,1,1,1,30.000000
2023-09-13 18:19:45.701,,,,,,,,,,,,,,,,,,,,,,,,,,,,,,,,,,,,,,/muse/elements/blink
2023-09-13 18:19:46.512,,,,,,,,,,,,,,,,,,,,,,,,,,,,,,,,,,,,,,/muse/elements/blink
2023-09-13 18:19:46.531,0.8672907423101992,0.8893211294501545,1.143047630569364,0.9512363612078542,0.7709597379190363,0.3441015736621981,0.7146000906163931,1.157375208579725,0.184106202403526,0.4415782037473385,0.6746949560794051,0.5250302721050637,0.280424379495675,0.2551592660843791,0.3538753079682306,0.2781800797230001,-0.0278995488249196,0.03104086351813453,0.2151044281305168,0.07728978575352209,910.6227106227107,781.6849816849817,778.8644688644689,803.4432234432235,873.1501831501831,-0.124390,0.174805,0.966492,-1.084137,-4.747772,-8.830109,1,1,1,1,1,30.000000
2023-09-13 18:19:47.539,0.8672907423101992,0.7344924159387985,1.001098348511124,0.9512363612078542,0.7709597379190363,0.2320108721285127,0.6753322333801097,1.157375208579725,0.184106202403526,0.2371952425944134,0.6151562065220549,0.5250302721050637,0.280424379495675,0.2358570978882651,0.200054086602711,0.2781800797230001,-0.0278995488249196,0.04868074023325719,0.08736961912562406,0.07728978575352209,876.7765567765568,785.3113553113553,792.5641025641025,800.6227106227107,802.6373626373627,-0.125244,0.118591,0.977478,-2.639313,-5.966492,-6.190796,1,1,1,1,1,30.000000
2023-09-13 18:19:48.533,0.8672907423101992,0.864578971371312,0.9197721666822762,0.8714231681819521,0.7709597379190363,0.474577513235271,0.4173563997339375,0.7805064089619959,0.184106202403526,0.4870557848553992,0.6720728599091649,0.6653875455113044,0.280424379495675,0.3092519418368935,0.1004366209465237,0.5501560288746911,-0.0278995488249196,0.07838451347004967,-0.02600755689368846,0.1808707812780095,915.0549450549451,783.6996336996338,799.4139194139194,803.4432234432235,866.3003663003664,-0.176636,0.171082,0.962036,8.957214,1.547699,6.190796,1,1,1,1,1,30.000000
2023-09-13 18:19:49.468,,,,,,,,,,,,,,,,,,,,,,,,,,,,,,,,,,,,,,/muse/elements/blink
2023-09-13 18:19:49.531,0.8672907423101992,0.9972516832696445,1.05083947045341,1.087662249020315,0.7709597379190363,0.3391693696820507,0.5539086399185127,0.816670873195149,0.184106202403526,0.5730181015289182,0.7954152497790705,1.055632806596238,0.280424379495675,0.360640374300581,0.4005660558842266,0.4962312983805589,-0.0278995488249196,-0.06395857198710286,0.05241085302481483,0.04786687249308274,960.989010989011,785.7142857142858,785.7142857142858,832.4542124542124,914.6520146520147,-0.154724,0.100403,0.969543,3.581390,-5.360870,1.323395,1,1,1,1,1,30.000000
2023-09-13 18:19:49.689,,,,,,,,,,,,,,,,,,,,,,,,,,,,,,,,,,,,,,/muse/elements/blink
2023-09-13 18:19:50.492,,,,,,,,,,,,,,,,,,,,,,,,,,,,,,,,,,,,,,/muse/elements/blink
2023-09-13 18:19:50.531,0.8672907423101992,0.5966590437213415,0.4551817736629772,0.9027686501927737,0.7709597379190363,0.1998513948505748,0.3623172467811195,0.6242136148385969,0.184106202403526,0.4636702478881283,0.7711730373957995,0.8362784441564692,0.280424379495675,0.196084811163806,0.4367645207502177,0.4374665324135283,-0.0278995488249196,-0.03288672973606126,-0.08913109324510433,0.1044275870373381,944.8717948717949,794.981684981685,800.2197802197802,834.8717948717949,929.1575091575091,-0.170044,0.149414,0.964722,1.958923,-5.727234,-2.190704,1,1,1,1,1,30.000000
2023-09-13 18:19:51.533,0.8672907423101992,0.2972277594658777,0.4784146835362154,0.9027686501927737,0.7709597379190363,0.1960424710060184,0.1538036446207202,0.6242136148385969,0.184106202403526,0.3137104133301064,0.6230907248796353,0.8362784441564692,0.280424379495675,0.1488360217178815,0.3011051359139209,0.4374665324135283,-0.0278995488249196,0.06896902421049844,-0.1664580909551729,0.1044275870373381,926.7399267399268,792.967032967033,812.7106227106227,830.8424908424909,770.4029304029305,-0.116150,0.143738,0.979858,3.267365,-0.373840,1.323395,1,1,1,1,1,30.000000
2023-09-13 18:19:52.536,1.060193866990681,0.7983747571962758,1.071203539720612,1.558486198259738,1.041296343382858,0.5172167483390473,0.4050073422897044,0.9566581450769156,1.296149182245132,0.6121381249899763,0.8564266627159735,1.174366067320018,0.5140559585054373,0.2369580893626838,0.3716083332088352,0.5004383070869876,0.1103499690068595,-0.08884102928611143,-0.2246086356599001,0.1443468649030539,920.6959706959707,789.7435897435897,796.1904761904763,820.7692307692308,759.92673992674,-0.149170,0.160767,0.966675,2.310333,-1.712189,1.809387,1,1,1,1,1,30.000000
2023-09-13 18:19:53.538,0.7793623011829895,0.7231098049119102,0.5461868390095275,1.018950528889063,0.9562592941301788,0.5174531159209265,0.001540875396419202,0.7446787961803288,1.31031302590076,0.5568035899178639,0.05384444693739215,1.182880055779423,0.4420188374915248,0.09432418451726771,0.2963136513727955,0.5594185334460784,0.1717110897272375,-0.3049052193914463,0.05564839747057496,0.2778325383516278,812.3076923076924,796.996336996337,784.1025641025641,786.5201465201466,932.3809523809524,-0.099731,0.118042,0.974304,1.039276,-3.319702,0.007477,1,1,1,1,1,30.000000
2023-09-13 18:19:54.536,0.7065405926127467,0.6467756833842849,0.51080076860732,0.6287313382711387,0.7100553140115203,0.28128440680552,0.1367469437827206,0.3827566359415629,0.8967937597416776,0.3496261083522976,0.4201786098318705,0.868366483616518,0.2685065334943722,0.1237509881338101,0.3576288181373478,0.5232514861118821,0.0838216946708269,-0.1589799872136933,0.07039926340971484,0.2318364710257093,840.1098901098901,801.025641025641,796.1904761904763,799.8168498168499,766.3736263736264,-0.111694,0.135010,0.974426,6.452484,-3.035583,3.708496,1,1,1,1,1,30.000000
2023-09-13 18:19:55.530,0.7288756171740897,1.132650738459628,1.058012433507908,1.022548683601027,0.5367243445190779,0.6454424883110584,0.8419586518256715,1.012832632437113,0.8440961075883568,0.7103142143458337,0.6551979584523754,0.9684821729044887,0.3809734345021821,0.2830331452107858,0.3987796110674484,0.6445420669268396,0.1795353833038141,-0.01980492049694355,0.1121668321003698,0.2273611342193669,865.0915750915751,784.9084249084249,796.996336996337,809.0842490842491,792.967032967033,-0.142151,0.132629,0.965576,1.360779,-0.471039,-5.652466,1,1,1,1,1,30.000000
2023-09-13 18:19:55.964,,,,,,,,,,,,,,,,,,,,,,,,,,,,,,,,,,,,,,/muse/elements/blink
2023-09-13 18:19:56.397,,,,,,,,,,,,,,,,,,,,,,,,,,,,,,,,,,,,,,/muse/elements/blink
2023-09-13 18:19:56.537,0.266664818956816,0.9383700854070927,0.8571287047508376,1.29095821347694,0.3039209858662058,0.5105764198035567,0.6883873045840996,1.419262010007906,0.6560927960956996,0.7223849574232551,0.5769862014845561,0.8871093002693887,0.2340984809124163,0.339346341664867,0.2518223346638929,0.7711888728787293,0.08030577249747028,0.008402439464094254,-0.07346357971237438,0.3511851580683688,792.1611721611722,797.8021978021978,806.6666666666667,849.3772893772895,630.989010989011,-0.141785,0.109802,0.965271,3.416901,0.082245,2.160797,1,1,1,1,1,30.000000
2023-09-13 18:19:57.539,0.2673374358037758,0.7558121070562762,0.8221538274129582,1.29095821347694,0.2170754700623631,0.4134505281910416,0.5618141177511619,1.419262010007906,0.3536965396007737,0.6738210162708174,0.6520226290094324,0.8871093002693887,0.2083533899409214,0.2353313513663919,0.256997851327906,0.7711888728787293,-0.198612958275174,-0.3519293299450709,-0.1861670080601635,0.3511851580683688,760.3296703296703,795.3846153846154,793.7728937728938,830.0366300366301,817.948717948718,-0.153809,0.125732,0.963562,-0.239258,0.014954,-0.553284,1,1,1,1,1,30.000000
2023-09-13 18:19:58.531,1.193221470647077,0.7342863852650297,0.896723824737403,1.29095821347694,0.7275638595834969,-0.002416218983777854,0.2745477603846377,1.419262010007906,0.574526220909971,0.5165520614820764,0.2958158869083537,0.8871093002693887,0.3703542139362097,0.1354085161303663,0.1826113915189121,0.7711888728787293,0.1786155894200526,-0.417119795426477,-0.3858341054508769,0.3511851580683688,777.6556776556777,803.4432234432235,799.4139194139194,790.1465201465202,727.2893772893773,-0.165710,0.130066,0.965515,2.310333,-2.041168,2.355194,1,1,1,1,1,30.000000
2023-09-13 18:19:59.530,1.17478504736788,0.6313378519411605,0.557444877628259,1.363740305471682,0.8878823223146094,0.2434845933227549,-0.1713632055508092,0.9513878375045697,0.7650418398655534,0.5408966122421905,0.2202587554868611,0.9577159495513815,0.3856984220601875,0.2177119992187727,0.290740790489141,0.6015988009248754,0.0093681556981956,-0.2293555803522401,-0.3200744113773032,-0.03832812245767845,809.0842490842491,802.6373626373627,794.1758241758242,800.6227106227107,756.3003663003664,-0.138306,0.160522,0.976135,5.899200,-1.495361,-2.415009,1,1,1,1,1,30.000000
2023-09-13 18:20:00.535,1.350354362520949,0.6689275282414244,0.2261736714853463,1.255444625550035,1.113236405715932,0.4713107787757854,0.1225622410296545,0.8406192468880151,0.7789908664472662,0.1801379679325913,0.2247605541687705,0.8521007920559827,0.301614753508772,0.1687189765625533,0.2956551978344757,0.6105537130955473,-0.2291783524702134,-0.2282829340567414,-0.2124041663229692,0.03665666063820828,691.8315018315019,798.2051282051282,811.9047619047619,795.3846153846154,794.1758241758242,-0.132263,0.126404,0.971375,0.007477,-2.863617,1.540222,1,1,1,1,1,30.000000
2023-09-13 18:20:01.530,1.408366978173166,0.9057634851595592,0.7965558871786649,1.448463458891469,1.137902197165806,0.552981412129638,0.2585464229785316,1.127783285413094,0.7789908664472662,0.4842209660811907,0.3263327308208193,0.8214973386634293,0.2932103381448146,0.2475876178151643,0.2867856717952972,0.7064721338158073,-0.2254002242142299,-0.08975174177145585,-0.07184514534925279,0.1140248389897942,692.6373626373627,819.5604395604396,808.6813186813187,787.3260073260074,707.1428571428571,-0.129089,0.121948,0.951843,5.816956,-1.338348,6.287994,1,1,1,1,1,30.000000
2023-09-13 18:20:01.641,,,,,,,,,,,,,,,,,,,,,,,,,,,,,,,,,,,,,,/muse/elements/blink
2023-09-13 18:20:01.883,,,,,,,,,,,,,,,,,,,,,,,,,,,,,,,,,,,,,,/muse/elements/blink
2023-09-13 18:20:02.530,1.030083145587372,0.8010080652107355,0.9813011385958169,1.463611537812054,1.091468704616269,0.5420110025252747,0.4816647662842519,1.098661678633935,1.217956629477374,0.5277351755686757,0.2202024486085619,0.8196813684336297,0.5686424883646191,0.6924956442235956,0.2442595966578924,0.7300215446868539,0.2501739118232096,0.4841475100581093,0.001779244286214318,0.1652254754381856,664.8351648351648,850.1831501831502,873.5531135531136,786.9230769230769,727.2893772893773,-0.476501,0.082886,0.824890,1.734619,-2.444916,-1.562653,1,1,1,1,1,30.000000
2023-09-13 18:20:03.282,,,,,,,,,,,,,,,,,,,,,,,,,,,,,,,,,,,,,,/muse/elements/blink
2023-09-13 18:20:03.531,1.24811701099271,0.5802592084385336,0.9429150582016743,1.463611537812054,1.330165180038892,0.5559270478598328,0.5316400421688746,1.098661678633935,1.217956629477374,0.2469785036465179,0.06933897999706518,0.8196813684336297,0.7352132136316192,1.07156876497764,0.1449535726134547,0.7300215446868539,0.4310890209837416,0.9010549049554151,0.0309175124564537,0.1652254754381856,541.5384615384615,823.992673992674,820.3663003663004,729.3040293040293,721.2454212454213,-0.220825,0.142212,0.947998,8.471222,-14.153595,19.649048,1,1,1,1,1,30.000000
2023-09-13 18:20:03.804,,,,,,,,,,,,,,,,,,,,,,,,,,,,,,,,,,,,,,/muse/elements/blink
2023-09-13 18:20:04.535,1.24811701099271,0.9397942446293767,0.9429150582016743,1.463611537812054,1.330165180038892,0.6067583846716943,0.5316400421688746,1.098661678633935,1.217956629477374,0.2692133698891599,0.06933897999706518,0.8196813684336297,0.7352132136316192,0.1489673021369323,0.1449535726134547,0.7300215446868539,0.4310890209837416,-0.2562837878099616,0.0309175124564537,0.1652254754381856,595.1282051282052,786.1172161172161,781.2820512820513,758.3150183150184,666.0439560439561,-0.181091,0.169373,0.959229,2.086029,-3.416901,1.973877,1,1,1,1,1,30.000000
2023-09-13 18:20:05.530,1.24811701099271,0.671760476834635,0.908218415604421,1.463611537812054,1.330165180038892,0.3558774226093554,0.2923006006840047,1.098661678633935,1.217956629477374,0.3843248918798849,0.1650453175779441,0.8196813684336297,0.7352132136316192,0.1644520653001503,0.2056689854400293,0.7300215446868539,0.4310890209837416,-0.2944032886665803,-0.1791436712775095,0.1652254754381856,550,785.7142857142858,787.3260073260074,709.9633699633699,605.6043956043957,-0.140076,0.140076,0.960510,3.514099,-2.123413,-0.643005,1,2,1,1,2,30.000000
2023-09-13 18:20:05.720,,,,,,,,,,,,,,,,,,,,,,,,,,,,,,,,,,,,,,/muse/elements/blink
2023-09-13 18:20:06.240,,,,,,,,,,,,,,,,,,,,,,,,,,,,,,,,,,,,,,/muse/elements/blink
2023-09-13 18:20:06.536,1.24811701099271,0.3773899617538851,0.4486346203400025,1.463611537812054,1.330165180038892,0.1420716120644637,0.2068388366324234,1.098661678633935,1.217956629477374,0.2437452508805547,0.4683666239001064,0.8196813684336297,0.7352132136316192,0.07917363784095104,0.06556610189724181,0.7300215446868539,0.4310890209837416,-0.2061928176789219,-0.1985682883985128,0.1652254754381856,639.4505494505495,801.8315018315019,793.7728937728938,760.7326007326008,666.8498168498169,-0.123169,0.125610,0.971130,1.981354,-3.469238,4.740295,1,2,1,1,2,30.000000
2023-09-13 18:20:06.853,,,,,,,,,,,,,,,,,,,,,,,,,,,,,,,,,,,,,,/muse/elements/blink
2023-09-13 18:20:07.539,1.24811701099271,0.5026927493106884,0.8392727594015967,1.463611537812054,1.330165180038892,0.2104319974914483,0.5944488974166415,1.098661678633935,1.217956629477374,0.0615528254283457,0.5921105711890201,0.8196813684336297,0.7352132136316192,0.04776737606615299,0.2127359355603029,0.7300215446868539,0.4310890209837416,-0.291659416386377,-0.1351480951151412,0.1652254754381856,663.2234432234433,846.5567765567765,850.5860805860806,781.6849816849817,679.7435897435897,-0.184448,0.121460,0.965027,-2.990723,-8.074951,-9.652557,1,2,1,1,2,30.000000
2023-09-13 18:20:08.531,1.24811701099271,1.293995296255945,1.320294282315896,1.189206743779016,1.330165180038892,0.6445356737968546,0.5572463438644989,0.3813456330743337,1.217956629477374,0.3422738907895998,0.4593996228721792,0.5886915386809417,0.7352132136316192,0.07184251462350953,0.2721740127398242,0.6844656945959277,0.4310890209837416,-0.1621351385703329,-0.07010027229801458,0.1307596774555817,699.8901098901099,757.9120879120879,795.3846153846154,742.6007326007326,828.4249084249085,-0.127319,0.109253,0.962402,5.413208,-1.786957,2.033691,1,1,1,1,1,30.000000
2023-09-13 18:20:09.530,1.24811701099271,1.045323892197117,1.038424805472584,1.181408520960439,1.330165180038892,0.2208430677725557,0.3380864535978252,0.3200301361115738,1.217956629477374,0.3609126002832678,0.2863934650648797,0.576551394235998,0.7352132136316192,0.1132305494602219,0.2664454375294782,0.6885424852724865,0.4310890209837416,-0.2100809239585261,-0.2340455012791124,0.1228788256035065,606.007326007326,772.4175824175825,778.0586080586081,752.2710622710623,705.1282051282052,-0.094849,0.109436,0.973450,5.360870,-0.373840,4.949646,1,1,1,1,1,30.000000
2023-09-13 18:20:10.530,0.6066012340338005,0.3849603133992111,0.3924842178944489,0.7396998390993806,0.4373888114992419,0.03663824802134946,0.273488074588724,0.4123003803608158,0.804485988333673,0.3680369735829909,0.3753638062878422,0.5443841218470119,0.3463364560057033,0.0878878665240402,0.2703097956508806,0.3991714764287262,0.2619713902349108,-0.2396110655889683,-0.1402139063350726,0.3204759894054225,684.1758241758242,791.3553113553114,788.1318681318681,769.5970695970697,701.9047619047619,-0.104980,0.157593,0.958435,8.082428,-3.267365,3.499146,1,1,1,1,1,30.000000
2023-09-13 18:20:10.773,,,,,,,,,,,,,,,,,,,,,,,,,,,,,,,,,,,,,,/muse/elements/blink
2023-09-13 18:20:11.234,,,,,,,,,,,,,,,,,,,,,,,,,,,,,,,,,,,,,,/muse/elements/blink
2023-09-13 18:20:11.531,0.553413332098851,0.8417352786551864,0.9306115872910693,0.7915923923362714,0.5521664330046844,0.3087186070631692,0.5561704322453702,0.6019447986934059,0.7964678038782582,0.3485572787327894,0.3696003478271633,0.5298686196763726,0.3914283288220178,0.1841136949637397,0.1907755892543734,0.2967221123067785,0.4044437879383492,-0.1256084386773443,-0.1358541733650313,0.2956909246203978,682.5641025641025,813.5164835164835,796.5934065934066,794.981684981685,804.6520146520147,-0.140198,0.143982,0.960999,5.757141,-2.011261,-6.676788,1,1,1,1,1,30.000000
2023-09-13 18:20:12.532,0.7209866854624858,0.9974067817432947,0.8821188224012878,0.7915923923362714,0.6225875615120339,0.1729809043705025,0.5604325622886023,0.6019447986934059,0.8436331554405757,0.3681501677943088,0.2651806011886614,0.5298686196763726,0.2852244996379603,0.2579041258637828,0.1983842860760444,0.2967221123067785,0.1848726250009925,-0.01652622511366041,-0.3141617442078399,0.2956909246203978,800.6227106227107,845.7509157509157,885.2380952380953,791.3553113553114,734.5421245421246,-0.083984,0.132507,0.982605,3.132782,-0.276642,3.641205,1,1,1,1,1,30.000000
2023-09-13 18:20:13.542,0.898237668875164,0.675751017942317,1.039737866194528,0.8995206546501533,0.8869081279527771,0.129003391276131,0.3588434870788078,0.7432134600878613,0.8808231342843204,0.2551119758972017,0.2652493599192369,0.6366296354816837,0.396732113148761,0.1518676021557929,0.1443592462070105,0.4749409936513238,0.1329450853059836,0.03666430292034371,-0.2160440579087862,0.06782650284463064,716.4102564102565,790.1465201465202,804.2490842490843,730.9157509157509,933.1868131868132,-0.184631,0.125183,0.953674,0.665436,0.740204,-11.476898,1,1,1,1,1,30.000000
2023-09-13 18:20:14.541,1.024428259691232,0.7169076508678778,1.03063331702858,1.013805356997024,1.018511235028347,0.1055541237651953,0.392298667397166,0.7926660857894752,0.811625389809794,0.206150606523208,-0.1927426152374213,0.4845586606771656,0.4535749942495932,0.1416473501423517,0.2226278289378964,0.447904305234869,0.08255066723847158,0.09995230587748831,0.02856977228485058,-0.00302128025212037,852.6007326007326,789.7435897435897,779.2673992673992,768.3882783882784,944.4688644688645,-0.164612,0.111084,0.965454,-0.343933,-4.179535,-1.076660,1,1,1,1,1,30.000000
2023-09-13 18:20:15.530,1.024428259691232,0.9262068382487042,0.7759145471445577,1.013805356997024,1.018511235028347,0.5062432787927243,0.2735828388050732,0.7926660857894752,0.811625389809794,0.7668455292013336,0.08776298918133062,0.4845586606771656,0.4535749942495932,0.4567036239872329,0.1569209916421838,0.447904305234869,0.08255066723847158,-0.1518414657760488,-0.02463292821268465,-0.00302128025212037,884.4322344322345,787.3260073260074,821.5750915750916,842.9304029304029,911.8315018315019,-0.152832,0.128052,0.967224,1.345825,-3.813171,12.097473,1,1,1,1,1,30.000000
2023-09-13 18:20:15.974,,,,,,,,,,,,,,,,,,,,,,,,,,,,,,,,,,,,,,/muse/elements/blink
2023-09-13 18:20:16.531,1.024428259691232,1.111313388205436,0.6145182365633887,1.013805356997024,1.018511235028347,0.6280428786210995,0.2575610298373326,0.7926660857894752,0.811625389809794,0.7725152257181254,0.08776298918133062,0.4845586606771656,0.4535749942495932,0.4290912671664645,0.1766941611968772,0.447904305234869,0.08255066723847158,-0.05289142613854372,-0.05871795572173624,-0.00302128025212037,842.9304029304029,800.2197802197802,784.5054945054945,822.3809523809524,750.2564102564103,-0.200806,0.097900,0.967407,-0.328979,-0.874786,-4.979553,1,2,1,1,2,30.000000
2023-09-13 18:20:17.530,1.024428259691232,0.6913162734265572,0.6145182365633887,1.013805356997024,1.018511235028347,0.2608047013831748,0.2575610298373326,0.7926660857894752,0.811625389809794,0.4641143295893181,0.08776298918133062,0.4845586606771656,0.4535749942495932,0.2837086136561925,0.1766941611968772,0.447904305234869,0.08255066723847158,-0.1890798789143686,-0.05871795572173624,-0.00302128025212037,782.0879120879121,825.6043956043957,824.7985347985348,772.4175824175825,786.9230769230769,-0.192017,0.165527,0.957092,5.360870,-2.534637,5.906677,1,2,1,1,2,30.000000
2023-09-13 18:20:18.530,1.024428259691232,1.066563967688981,1.712047455730938,1.013805356997024,1.018511235028347,0.2958313091621771,0.736906198681901,0.7926660857894752,0.811625389809794,0.4179588867506783,0.6264358516578863,0.4845586606771656,0.4535749942495932,0.1880611654681748,0.3711305021093882,0.447904305234869,0.08255066723847158,-0.1617616650482771,-0.3556688565918688,-0.00302128025212037,767.985347985348,809.0842490842491,801.025641025641,651.1355311355312,832.8571428571429,-0.163879,0.090576,0.968262,1.644897,-5.600128,-0.814972,1,2,1,1,2,30.000000
2023-09-13 18:20:18.712,,,,,,,,,,,,,,,,,,,,,,,,,,,,,,,,,,,,,,/muse/elements/blink
2023-09-13 18:20:18.929,,,,,,,,,,,,,,,,,,,,,,,,,,,,,,,,,,,,,,/muse/elements/blink
2023-09-13 18:20:19.127,,,,,,,,,,,,,,,,,,,,,,,,,,,,,,,,,,,,,,/muse/elements/blink
2023-09-13 18:20:19.537,1.024428259691232,1.18944256686608,1.663564279002182,1.013805356997024,1.018511235028347,0.3459042536976487,0.846205534805901,0.7926660857894752,0.811625389809794,0.2987103848793087,0.6269878689494772,0.4845586606771656,0.4535749942495932,0.09649994026988822,0.3967411713836466,0.447904305234869,0.08255066723847158,-0.07741749610908817,-0.2933689052748432,-0.00302128025212037,867.1062271062272,815.1282051282052,772.4175824175825,787.3260073260074,971.8681318681319,-0.408508,0.236328,0.890747,-3.618774,-0.971985,-0.201874,1,2,1,1,2,30.000000
2023-09-13 18:20:19.828,,,,,,,,,,,,,,,,,,,,,,,,,,,,,,,,,,,,,,/muse/elements/blink
2023-09-13 18:20:20.261,,,,,,,,,,,,,,,,,,,,,,,,,,,,,,,,,,,,,,/muse/elements/blink
2023-09-13 18:20:20.438,,,,,,,,,,,,,,,,,,,,,,,,,,,,,,,,,,,,,,/muse/elements/blink
2023-09-13 18:20:20.530,1.024428259691232,0.7226836793037057,0.9967085349403503,1.013805356997024,1.018511235028347,0.03979029192375121,0.8555544442687449,0.7926660857894752,0.811625389809794,0.2862974921013029,0.3178869623877919,0.4845586606771656,0.4535749942495932,0.01126815532567375,0.310543867516242,0.447904305234869,0.08255066723847158,-0.3781911609537327,-0.2265987719482956,-0.00302128025212037,874.3589743589744,796.1904761904763,781.2820512820513,809.4871794871796,977.5091575091575,-0.206299,0.153137,0.956299,3.723450,-16.067657,-1.405640,1,2,1,1,2,30.000000
2023-09-13 18:20:21.237,,,,,,,,,,,,,,,,,,,,,,,,,,,,,,,,,,,,,,/muse/elements/blink
2023-09-13 18:20:21.529,1.024428259691232,0.5436529818755061,0.7993594323903178,1.013805356997024,1.018511235028347,0.1481732255534942,0.5041412552139232,0.7926660857894752,0.811625389809794,0.3005201891153596,0.56096830482336,0.4845586606771656,0.4535749942495932,0.1785829869359459,0.146770485648415,0.447904305234869,0.08255066723847158,-0.1813595655007305,-0.2399979965309741,-0.00302128025212037,956.1538461538462,803.040293040293,780.0732600732601,819.5604395604396,817.948717948718,-0.115784,0.151550,0.968018,1.525269,-7.895508,-1.727142,1,2,1,1,2,30.000000
2023-09-13 18:20:22.529,1.024428259691232,0.5471221090892761,0.8014354431695507,1.013805356997024,1.018511235028347,0.1062347462138321,0.209188887375549,0.7926660857894752,0.811625389809794,0.3434489202248837,0.4296461420436395,0.4845586606771656,0.4535749942495932,0.3176318734103754,0.128169010185041,0.447904305234869,0.08255066723847158,0.1701866980363712,-0.06322313224261938,-0.00302128025212037,841.7216117216118,828.4249084249085,813.5164835164835,820.3663003663004,759.1208791208792,0.023254,0.130798,0.975891,-0.134583,-8.403931,4.949646,1,2,1,1,2,30.000000
2023-09-13 18:20:23.388,,,,,,,,,,,,,,,,,,,,,,,,,,,,,,,,,,,,,,/muse/elements/blink
2023-09-13 18:20:23.530,1.024428259691232,0.7267751640097899,1.036806931182906,1.013805356997024,1.018511235028347,0.1878402900416238,-0.1068680393042464,0.7926660857894752,0.811625389809794,0.1652721697723468,0.01894930298319567,0.4845586606771656,0.4535749942495932,0.2111247777805109,-0.01071102442400018,0.447904305234869,0.08255066723847158,-0.1855768075222889,-0.1380107495662959,-0.00302128025212037,884.4322344322345,826.4102564102565,830.0366300366301,782.0879120879121,919.8901098901099,-0.085449,0.162048,0.961792,3.177643,7.701111,-0.463562,1,2,1,1,2,30.000000
2023-09-13 18:20:23.802,,,,,,,,,,,,,,,,,,,,,,,,,,,,,,,,,,,,,,/muse/elements/blink
2023-09-13 18:20:23.997,,,,,,,,,,,,,,,,,,,,,,,,,,,,,,,,,,,,,,/muse/elements/blink
2023-09-13 18:20:24.530,1.024428259691232,0.9695424592436939,0.765923601763154,1.013805356997024,1.018511235028347,0.1721832640960022,0.5563705936845309,0.7926660857894752,0.811625389809794,0.2465694785913274,0.3572881773848432,0.4845586606771656,0.4535749942495932,0.06845989786530483,0.2793814752507481,0.447904305234869,0.08255066723847158,-0.1431710885928522,-0.09727621129718675,-0.00302128025212037,905.3846153846154,799.8168498168499,781.6849816849817,795.7875457875458,840.1098901098901,-0.249878,0.162292,0.936951,2.190704,-4.957123,-0.927124,1,2,1,1,2,30.000000
2023-09-13 18:20:24.890,,,,,,,,,,,,,,,,,,,,,,,,,,,,,,,,,,,,,,/muse/elements/blink
2023-09-13 18:20:25.530,1.024428259691232,0.810572614186752,0.9730878812058467,1.013805356997024,1.018511235028347,0.1192896503890395,0.4177460195283512,0.7926660857894752,0.811625389809794,0.3510945135676109,0.3587338689046187,0.4845586606771656,0.4535749942495932,0.3152833676968592,0.283004578918298,0.447904305234869,0.08255066723847158,-0.1140186702931097,-0.06611570383257988,-0.00302128025212037,913.8461538461539,794.5787545787546,793.7728937728938,787.7289377289378,880.4029304029305,-0.345581,0.139160,0.915283,-1.061707,-1.839294,-2.504730,1,2,1,1,2,30.000000
2023-09-13 18:20:26.533,0.6128329709993219,0.2522597606518259,0.877009981210243,1.013805356997024,0.4476317890223758,0.1802810296681422,0.2352774251242337,0.7926660857894752,0.3297257389893166,0.3131772867797405,0.4141035738036541,0.4845586606771656,0.2024385740703793,0.2274860292146795,0.2309142539113757,0.447904305234869,0.1358057934449206,-0.268655473701214,-0.1020321367527433,-0.00302128025212037,838.4981684981685,798.6080586080586,787.3260073260074,790.1465201465202,910.2197802197802,-0.287781,0.130493,0.917175,4.426270,-7.155304,9.540405,1,1,1,1,1,30.000000
2023-09-13 18:20:27.535,0.6357338308309948,0.219173395462052,0.3880279542696468,0.9567751212715777,0.3993442998078413,0.05040783617553449,0.1687969826602451,0.7439917973150905,0.4302072771304879,0.06890316516571106,0.3853713170815598,1.007439543508511,0.3238498603540123,-0.07473711901825335,0.1136487011399641,0.2842806816687162,0.08151859574071502,-0.433429448012958,-0.06493801569498794,0.1975764056549808,866.7032967032967,794.981684981685,772.8205128205128,775.2380952380953,738.1684981684982,-0.247253,0.170532,0.949097,2.893524,-6.407623,6.078644,1,1,1,1,1,30.000000
2023-09-13 18:20:28.530,0.9477804917371982,0.654928406905406,0.8904866031881111,0.898970801137815,0.6992259510112075,0.3884273682173598,0.1168837863653307,0.5633937698435559,0.6927623659052161,0.4278075456429311,0.3398865550927407,0.3260984808887781,0.4808890383147699,-0.04562236998290078,0.1552172009480345,0.3369148015246879,0.04105589144231377,-0.4305867815277022,-0.1214190928334884,0.1664068463584939,928.7545787545788,812.3076923076924,822.7838827838829,809.8901098901099,931.1721611721612,-0.257202,0.162476,0.934631,-1.046753,-14.878845,-10.280609,1,1,1,1,1,30.000000
2023-09-13 18:20:29.529,1.038117115999586,0.9164072849229292,1.201844536937025,1.058131063728127,0.8159316928992266,0.3737179477952729,0.2776088909796928,0.6461112441919666,0.6927623659052161,0.3983217136052384,0.2787085175959639,0.2716663377074424,0.4729287750499552,0.04642512467322985,0.1861835284248499,0.4097011810063305,0.08139219451754719,-0.1917325059414228,-0.1786849325798237,0.2140977234591673,906.996336996337,799.8168498168499,804.2490842490843,758.3150183150184,916.2637362637363,-0.192261,0.144287,0.956970,4.187012,-3.282318,10.744171,1,1,1,1,1,30.000000
2023-09-13 18:20:30.189,,,,,,,,,,,,,,,,,,,,,,,,,,,,,,,,,,,,,,/muse/elements/blink
2023-09-13 18:20:30.530,1.038117115999586,0.891692166422001,1.201844536937025,1.058131063728127,0.8159316928992266,0.3188886588710657,0.2776088909796928,0.6461112441919666,0.6927623659052161,0.3098889897506578,0.2787085175959639,0.2716663377074424,0.4729287750499552,0.05838932897607956,0.1861835284248499,0.4097011810063305,0.08139219451754719,-0.2415143924207509,-0.1786849325798237,0.2140977234591673,914.2490842490843,794.5787545787546,792.1611721611722,767.985347985348,905.7875457875458,-0.195312,0.180420,0.950806,2.975769,-2.871094,-7.648773,1,1,1,1,1,30.000000
2023-09-13 18:20:31.530,1.038117115999586,0.9374137744987059,0.7148792046693049,0.7985358513399229,0.8159316928992266,0.364946369716562,0.1286892562514748,0.02572817448589121,0.6927623659052161,0.4900414330936693,0.3912422660437996,0.2478579259747613,0.4729287750499552,0.01546147204843652,0.03758846354936337,0.02382381801244268,0.08139219451754719,-0.3410129812619236,-0.3496461514448257,0.02907925139943676,870.3296703296703,790.1465201465202,793.7728937728938,780.0732600732601,786.1172161172161,-0.170471,0.149475,0.960938,2.325287,-0.134583,4.037476,1,2,1,1,2,30.000000
2023-09-13 18:20:32.530,1.038117115999586,0.9497338517682237,0.5317846001783512,0.9283610252166983,0.8159316928992266,0.329136006764802,-0.3124658435417311,0.7105743630905869,0.6927623659052161,0.6986316083653484,0.2445902188469772,0.8303122724696036,0.4729287750499552,0.08096134052311307,0.06411034972283056,0.4182962222548492,0.08139219451754719,-0.2420563492166843,-0.1937149192323417,0.09622575155701148,917.8754578754579,795.7875457875458,790.5494505494506,772.8205128205128,864.6886446886447,-0.148743,0.097534,0.961304,-0.837402,-6.534729,-0.351410,1,1,1,1,1,30.000000
2023-09-13 18:20:33.533,0.4264698414025587,0.3616094150483932,0.3997478134996026,0.6969115904437281,0.2943478111302709,-0.01424148858706277,-0.5603595541195098,0.60366978073643,0.4522658326536039,0.4346818669531217,0.1666768650019189,0.7181397865179924,0.2960636686625296,-0.06536552198941907,0.1140095005494871,0.4032251208413151,-0.05980243944237173,-0.2734642145727457,-0.1619356644909821,0.04668403682847421,875.5677655677656,799.8168498168499,785.3113553113553,782.0879120879121,745.0183150183151,-0.143494,0.110596,0.964478,1.622467,-3.476715,-1.592560,1,1,1,1,1,30.000000
2023-09-13 18:20:34.530,0.1568252590838093,0.7522960249617007,0.6158312932527424,0.3044198723849683,0.2394626707318174,0.190027686137831,0.2753953567941875,0.5969235430904004,0.6512635583198298,0.3944326109718442,0.1210907389065622,0.506199217326828,0.3514001024305007,0.1041859932262767,0.1104956595192764,0.3401708171648428,-0.07198812387942416,-0.2150515324282426,-0.350190033975747,-0.1068442904308491,693.4432234432235,828.021978021978,814.7252747252747,782.893772893773,688.6080586080586,-0.135559,0.079956,0.962830,1.046753,-2.646790,-0.224304,1,1,1,1,1,30.000000
2023-09-13 18:20:35.529,0.2620454781352632,1.096448086285506,0.8458862338652349,0.4075987985217165,0.3170096632612061,0.2989228751336406,0.3476005815362495,0.6558441580377096,0.6314376457947142,0.4034908428151293,0.2461488348234492,0.4516075445085275,0.2992040784630412,0.1493836759176247,0.08103747334055987,0.2174267003792014,-0.02558428574836993,-0.2316212135690588,-0.223332459053249,-0.113127560001799,625.3479853479854,790.952380952381,830.0366300366301,769.1941391941392,652.7472527472528,-0.134644,0.122131,0.964966,2.594452,-17.622833,-3.349609,1,1,1,1,1,30.000000
2023-09-13 18:20:36.532,0.4729087439074331,0.7836280820950078,0.5514258902204594,0.4401187989933569,0.2681493505532341,0.01454149407003802,-0.1288986599573475,0.3087179825182348,0.3963122769460465,0.1777301170471013,0.3174063929784859,0.4099085448260217,0.2702402942611835,-0.04024033567942381,0.001089153601836271,0.227828621081078,0.06578552039526246,-0.420537643448075,-0.1768703802668149,0.007980050084529943,697.4725274725275,788.5347985347986,813.1135531135532,782.4908424908425,701.9047619047619,-0.162598,0.093262,0.973328,0.388794,-2.886047,-3.992615,1,1,1,1,1,30.000000
2023-09-13 18:20:37.530,0.5504113709879644,0.5166812422868304,0.3401802741727738,0.4886136733895553,0.3026594281020634,-0.06615971905786756,-0.2846273194361154,0.4613917289645443,0.5286520582937263,0.1409090852544191,0.3155808026526883,0.6760149665712375,0.2934311847368848,-0.1135214047688774,0.08508368889446283,0.2820270221205683,0.07680819271472723,-0.5328828238910656,-0.1693738224990526,0.1207955680670121,658.7912087912088,793.3699633699634,801.025641025641,782.0879120879121,657.5824175824176,-0.141479,0.146484,0.958984,3.745880,-7.319794,5.749664,1,1,1,1,1,30.000000
2023-09-13 18:20:37.596,,,,,,,,,,,,,,,,,,,,,,,,,,,,,,,,,,,,,,/muse/elements/blink
2023-09-13 18:20:37.834,,,,,,,,,,,,,,,,,,,,,,,,,,,,,,,,,,,,,,/muse/elements/blink
2023-09-13 18:20:38.530,0.6299960188977447,0.5707224028698304,0.4642303155452712,0.5072565482815472,0.2733244625988906,0.2630771479716351,-0.05769109337197879,0.3594986187909006,0.4230384537618803,0.1394902795311743,0.414404635457013,0.5774296002824263,0.3383528585447482,-0.0919831860847566,0.101534521781446,0.2287259692502512,0.1844046244657247,-0.4616623241096058,-0.3307189510838419,0.1083003437615919,657.1794871794872,794.981684981685,812.3076923076924,788.5347985347986,624.9450549450549,-0.111816,0.081177,0.970398,-0.104675,-8.680573,-8.231964,1,1,1,1,1,30.000000
2023-09-13 18:20:39.252,,,,,,,,,,,,,,,,,,,,,,,,,,,,,,,,,,,,,,/muse/elements/blink
2023-09-13 18:20:39.529,0.6299960188977447,0.6229075056690355,0.8789310091695939,0.5072565482815472,0.2733244625988906,0.2174129482900625,0.3648439290964492,0.3594986187909006,0.4230384537618803,0.4687831440725587,0.4146933002641356,0.5774296002824263,0.3383528585447482,0.03536306991175777,0.01756114623615522,0.2287259692502512,0.1844046244657247,-0.2657305822960639,-0.2919677671727914,0.1083003437615919,656.3736263736264,798.6080586080586,804.6520146520147,772.4175824175825,679.3406593406594,-0.253845,0.109009,0.967163,0.321503,1.286011,-9.869385,1,1,1,1,1,30.000000
2023-09-13 18:20:40.530,0.6299960188977447,0.5441609416160559,1.021448399310422,0.5072565482815472,0.2733244625988906,0.185943655358536,0.490746888236718,0.3594986187909006,0.4230384537618803,0.5034908029034791,0.3622731123495609,0.5774296002824263,0.3383528585447482,0.386068963763316,0.3266525074754757,0.2287259692502512,0.1844046244657247,0.1302794551608198,0.0202910857068688,0.1083003437615919,686.996336996337,792.967032967033,815.934065934066,856.2271062271062,809.4871794871796,-0.236511,0.063904,0.952698,-2.601929,-15.551758,4.747772,1,2,1,1,2,30.000000
2023-09-13 18:20:41.529,0.6299960188977447,0.5511055851102749,0.9682139202844148,0.5072565482815472,0.2733244625988906,0.1090096221407288,0.2486783158805908,0.3594986187909006,0.4230384537618803,0.4125342988877723,0.1742349879498328,0.5774296002824263,0.3383528585447482,0.3368233856542451,0.378156945508469,0.2287259692502512,0.1844046244657247,0.0449127601121331,0.1855299589078778,0.1083003437615919,633.4065934065934,792.967032967033,842.9304029304029,776.4468864468864,725.6776556776557,-0.112366,0.200012,0.960510,1.368256,-2.534637,3.386993,1,2,1,1,2,30.000000
2023-09-13 18:20:42.536,0.6299960188977447,0.738931431206854,1.202908659684285,0.5072565482815472,0.2733244625988906,0.1740235486007152,0.211939063427053,0.3594986187909006,0.4230384537618803,0.4140372087602552,0.1003033279573286,0.5774296002824263,0.3383528585447482,0.1488882672734256,0.05829000008881643,0.2287259692502512,0.1844046244657247,-0.1834526551222099,-0.2598961295479534,0.1083003437615919,642.2710622710623,799.0109890109891,807.8754578754579,776.8498168498169,661.6117216117216,-0.082336,0.205566,0.971436,-0.276642,-7.873077,-3.476715,1,2,1,1,2,30.000000
2023-09-13 18:20:43.176,,,,,,,,,,,,,,,,,,,,,,,,,,,,,,,,,,,,,,/muse/elements/blink
2023-09-13 18:20:43.540,0.6299960188977447,0.7964185928029912,0.8558371231249364,0.5072565482815472,0.2733244625988906,0.4731647874890936,0.142343091037847,0.3594986187909006,0.4230384537618803,0.431111537939678,0.1873038309984796,0.5774296002824263,0.3383528585447482,0.2640939543070674,0.126081288537477,0.2287259692502512,0.1844046244657247,-0.3448267260354536,-0.3509160359307492,0.1083003437615919,616.4835164835165,794.5787545787546,772.8205128205128,736.5567765567765,552.8205128205128,-0.204773,0.192444,0.943542,5.727234,-0.949554,0.299072,1,2,1,1,2,30.000000
2023-09-13 18:20:44.530,0.6299960188977447,0.9025680896392191,0.8804263521639185,0.5072565482815472,0.2733244625988906,0.3644691388617218,0.3637586021994342,0.3594986187909006,0.4230384537618803,0.4903013728784937,0.2343924199020754,0.5774296002824263,0.3383528585447482,0.2520639708506223,0.09868854307598907,0.2287259692502512,0.1844046244657247,-0.5292634427032448,-0.2681477991090643,0.1083003437615919,664.8351648351648,790.5494505494506,790.952380952381,777.2527472527473,699.4871794871796,-0.138672,0.149109,0.966614,2.923431,-0.254211,5.951538,1,2,1,1,2,30.000000
2023-09-13 18:20:45.530,0.6262642131408602,0.3164972998452174,0.6101724897804194,0.4630189467602635,0.5166053158138386,-0.1545171152043772,0.09795607460898113,0.445373546943342,0.6892303474342039,0.3955054404858296,0.2679834589493796,0.5509011448633049,0.3034035288356943,0.03231178090568462,0.02478825481291273,0.4168964888057619,0.1189860488500877,-0.4900047707954074,-0.3091383386109665,0.1295346114196597,636.6300366300367,790.1465201465202,792.5641025641025,782.0879120879121,861.8681318681319,-0.154053,0.188843,0.957825,6.654358,-6.848755,4.216919,1,1,1,1,1,30.000000
2023-09-13 18:20:46.125,,,,,,,,,,,,,,,,,,,,,,,,,,,,,,,,,,,,,,/muse/elements/blink
2023-09-13 18:20:46.530,0.2987120028319625,0.2528234762403683,0.7822370255672096,0.4889480966884943,0.3519318119619479,-0.1724519758858195,0.5076229457845696,0.5044280749043433,0.4121356343744959,0.3502039648691084,0.4697285261900095,0.5664390622630385,0.2818359074494438,0.08607332808003615,0.03985474542208166,0.4498124158285407,0.1881188138660859,-0.3565574632125131,-0.1394245386386179,0.1480675844085378,682.1611721611722,790.5494505494506,805.8608058608058,793.7728937728938,672.0879120879121,-0.166992,0.151184,0.954102,-0.351410,-4.254303,0.740204,1,1,1,1,1,30.000000
2023-09-13 18:20:47.530,0.2421083494989714,0.3057257465627727,1.227343114769529,0.6148383467918035,0.3845169832503381,0.2024636333241043,0.8785437448138074,0.6722603802430785,0.2686930395799922,0.2897080791336491,0.4878981117006603,0.5516411887773689,0.2502873254925188,0.280351439270653,0.05535005847164019,0.4860204999780553,0.2135618556218846,-0.1809452040281773,-0.04536999888197085,0.1702667140043232,754.2857142857143,800.6227106227107,785.3113553113553,832.4542124542124,715.2014652014652,-0.125610,0.128418,0.956726,0.478516,2.018738,-2.482300,1,1,1,1,1,30.000000
2023-09-13 18:20:47.774,,,,,,,,,,,,,,,,,,,,,,,,,,,,,,,,,,,,,,/muse/elements/blink
2023-09-13 18:20:48.529,0.2421083494989714,0.4136344711990342,1.118978890093282,0.6148383467918035,0.3845169832503381,0.3138111230977243,0.5788829597548252,0.6722603802430785,0.2686930395799922,0.1223798195563266,0.359805484497291,0.5516411887773689,0.2502873254925188,0.1158150107750096,-0.08658355378537064,0.4860204999780553,0.2135618556218846,-0.1841800210932482,-0.3778481039360026,0.1702667140043232,622.9304029304029,785.3113553113553,826.007326007326,775.2380952380953,877.5824175824176,-0.249878,0.137939,0.944275,2.781372,-3.985138,-4.673004,1,2,1,1,2,30.000000
2023-09-13 18:20:49.276,,,,,,,,,,,,,,,,,,,,,,,,,,,,,,,,,,,,,,/muse/elements/blink
2023-09-13 18:20:49.518,,,,,,,,,,,,,,,,,,,,,,,,,,,,,,,,,,,,,,/muse/elements/blink
2023-09-13 18:20:49.535,0.2421083494989714,0.8181885909689067,0.8245534448700251,0.6148383467918035,0.3845169832503381,0.2062996191758139,-0.04219756615407363,0.6722603802430785,0.2686930395799922,0.1636357693812326,0.09899846827593682,0.5516411887773689,0.2502873254925188,0.1535021132433294,0.3149834227670406,0.4860204999780553,0.2135618556218846,-0.2843136082518588,-0.05270447312660839,0.1702667140043232,658.7912087912088,795.7875457875458,799.4139194139194,732.9304029304029,636.6300366300367,-0.245728,0.180908,0.938171,7.902985,-0.530853,9.944153,1,2,1,1,2,30.000000
2023-09-13 18:20:49.693,,,,,,,,,,,,,,,,,,,,,,,,,,,,,,,,,,,,,,/muse/elements/blink
2023-09-13 18:20:50.018,,,,,,,,,,,,,,,,,,,,,,,,,,,,,,,,,,,,,,/muse/elements/blink
2023-09-13 18:20:50.529,0.2421083494989714,0.4963292983075535,0.5798723836144835,0.6148383467918035,0.3845169832503381,0.173577549027725,-0.1722097730082298,0.6722603802430785,0.2686930395799922,0.2675037391453307,0.2628840635079798,0.5516411887773689,0.2502873254925188,0.2091554506843334,0.1263047135457173,0.4860204999780553,0.2135618556218846,-0.29955857532727,-0.3058044677935407,0.1702667140043232,767.5824175824176,787.7289377289378,799.0109890109891,822.3809523809524,547.1794871794872,-0.376404,0.296265,0.813965,-1.682281,5.166473,-12.015228,1,2,1,1,2,30.000000
2023-09-13 18:20:50.647,,,,,,,,,,,,,,,,,,,,,,,,,,,,,,,,,,,,,,/muse/elements/blink
2023-09-13 18:20:51.000,,,,,,,,,,,,,,,,,,,,,,,,,,,,,,,,,,,,,,/muse/elements/blink
2023-09-13 18:20:51.326,,,,,,,,,,,,,,,,,,,,,,,,,,,,,,,,,,,,,,/muse/elements/blink
2023-09-13 18:20:51.534,0.2421083494989714,0.8054371672982976,0.6464504451436113,0.6148383467918035,0.3845169832503381,0.06135630474163459,0.3508272675375474,0.6722603802430785,0.2686930395799922,0.5280140044897415,0.2995054799860331,0.5516411887773689,0.2502873254925188,-0.01408429371180511,-0.1003696546271301,0.4860204999780553,0.2135618556218846,-0.4355765287330307,-0.6272531380148522,0.1702667140043232,655.5677655677656,776.8498168498169,807.4725274725275,774.4322344322345,722.8571428571429,-0.178284,0.028198,0.996338,6.661835,-6.280518,-2.841187,1,2,1,1,2,30.000000
2023-09-13 18:20:51.959,,,,,,,,,,,,,,,,,,,,,,,,,,,,,,,,,,,,,,/muse/elements/blink
2023-09-13 18:20:52.462,,,,,,,,,,,,,,,,,,,,,,,,,,,,,,,,,,,,,,/muse/elements/blink
2023-09-13 18:20:52.537,0.2421083494989714,1.006319052471622,0.6968201107756321,0.6148383467918035,0.3845169832503381,0.3688369883068389,0.2708116273729171,0.6722603802430785,0.2686930395799922,0.7237102033452367,0.364990192423663,0.5516411887773689,0.2502873254925188,0.06973066588251801,-0.0143683184642332,0.4860204999780553,0.2135618556218846,-0.4246155842975194,-0.6099003176278543,0.1702667140043232,713.992673992674,794.981684981685,800.6227106227107,814.7252747252747,626.5567765567765,-0.068237,0.136658,0.981689,9.742279,-7.910461,12.807770,1,2,1,1,2,30.000000
2023-09-13 18:20:53.442,,,,,,,,,,,,,,,,,,,,,,,,,,,,,,,,,,,,,,/muse/elements/blink
2023-09-13 18:20:53.529,0.2421083494989714,0.8104341701725127,0.4841900670514859,0.6148383467918035,0.3845169832503381,0.5111738012211489,0.3305983566509471,0.6722603802430785,0.2686930395799922,0.6517610417467602,0.4348377960544207,0.5516411887773689,0.2502873254925188,-0.03609277682181471,0.06366714677824736,0.4860204999780553,0.2135618556218846,-0.4748337716565908,-0.5048078316526525,0.1702667140043232,767.1794871794872,797.3992673992674,803.4432234432235,809.4871794871796,730.9157509157509,-0.219482,0.153564,0.930115,2.198181,6.355286,-7.177734,1,2,1,1,2,30.000000
2023-09-13 18:20:54.289,,,,,,,,,,,,,,,,,,,,,,,,,,,,,,,,,,,,,,/muse/elements/blink
2023-09-13 18:20:54.529,0.2421083494989714,0.288344868628403,0.9471638544843727,0.6148383467918035,0.3845169832503381,0.168370468184917,0.5845476164617288,0.6722603802430785,0.2686930395799922,0.3074369619502247,0.6229980360073682,0.5516411887773689,0.2502873254925188,-0.1377465248475046,0.186713771660561,0.4860204999780553,0.2135618556218846,-0.2790398308526513,-0.3094052548124833,0.1702667140043232,633.4065934065934,787.7289377289378,808.6813186813187,773.2234432234433,569.3406593406594,-0.198242,0.129639,0.954285,3.222504,-3.603821,5.383301,1,2,1,1,2,30.000000
2023-09-13 18:20:55.202,,,,,,,,,,,,,,,,,,,,,,,,,,,,,,,,,,,,,,/muse/elements/blink
2023-09-13 18:20:55.544,0.2421083494989714,0.4462800146925342,0.590178307356591,0.6148383467918035,0.3845169832503381,0.2166876183182941,0.1747342527787766,0.6722603802430785,0.2686930395799922,0.261083407406902,0.4489669035073023,0.5516411887773689,0.2502873254925188,0.09809695324833054,0.2945417082192184,0.4860204999780553,0.2135618556218846,0.1173313317460545,-0.1527586158809938,0.1702667140043232,908.6080586080586,775.6410256410256,785.3113553113553,798.2051282051282,956.1538461538462,-0.299133,0.143982,0.923340,4.530945,3.342133,-3.409424,1,2,1,1,2,30.000000
2023-09-13 18:20:56.529,0.2421083494989714,0.6411613707542174,0.8192793307674521,0.6148383467918035,0.3845169832503381,0.1137855086536981,0.2912068736833579,0.6722603802430785,0.2686930395799922,0.238333662224222,0.2269540977472419,0.5516411887773689,0.2502873254925188,0.3020662319759992,0.4511379534819948,0.4860204999780553,0.2135618556218846,0.4046341103520435,0.008137028039269712,0.1702667140043232,871.5384615384615,895.3113553113553,888.4615384615385,732.9304029304029,726.0805860805862,-0.307983,0.124023,0.927856,-0.403748,-9.338531,-0.224304,1,2,1,1,2,30.000000
2023-09-13 18:20:57.530,0.2421083494989714,0.6814270165590769,0.5423680926533784,0.6148383467918035,0.3845169832503381,0.01023819454881458,0.007097675654897167,0.6722603802430785,0.2686930395799922,0.1002108158613446,0.1622503458346077,0.5516411887773689,0.2502873254925188,0.3274322251178907,0.3904022693477561,0.4860204999780553,0.2135618556218846,0.2278522388827587,-0.1671325261051736,0.1702667140043232,793.3699633699634,774.4322344322345,792.1611721611722,756.3003663003664,743.0036630036631,-0.250000,0.132263,0.942749,-1.629944,-6.310425,0.426178,1,2,1,1,2,30.000000
2023-09-13 18:20:58.530,0.2421083494989714,0.6814270165590769,1.030984536524518,0.6148383467918035,0.3845169832503381,0.01023819454881458,0.2862110667386024,0.6722603802430785,0.2686930395799922,0.1002108158613446,0.1123214810286204,0.5516411887773689,0.2502873254925188,0.3274322251178907,0.1029801065235946,0.4860204999780553,0.2135618556218846,0.2278522388827587,-0.1659316583547525,0.1702667140043232,932.3809523809524,774.8351648351648,770.4029304029305,781.2820512820513,900.5494505494506,-0.235596,0.109375,0.958130,-1.128998,-7.723541,-4.231873,1,2,1,1,2,30.000000
2023-09-13 18:20:59.530,0.4602894724421036,0.5685613069821155,0.7610603506788102,0.4400181149756176,0.1826006854401147,0.1687440966230283,0.05105953113295054,0.4596980397458482,0.6909887453609571,0.1733903674312147,0.2422410700903597,0.6933381064379205,0.6054884027849465,0.165697807097386,0.03271934707867992,0.5262664156770435,0.2914435402984438,-0.2141515239948431,-0.1633388996633772,0.3630072724393894,895.3113553113553,784.9084249084249,778.0586080586081,782.0879120879121,876.7765567765568,-0.140198,0.158630,0.956909,-0.628052,-8.747864,-2.856140,1,1,1,1,1,30.000000
2023-09-13 18:21:00.530,0.4071791835242015,0.4389059000181126,0.4162328543264854,0.5496347759978536,0.05531737642952923,0.08912258217658717,0.2035873067757308,0.2140065203101149,0.5049295840902106,0.1423281359653627,0.3967660014358039,0.5914841265757637,0.4495220027155362,0.1608889488916387,-0.09664654406347595,0.486329127236401,0.2495144862498253,-0.1397926399795116,-0.269948928830925,0.4273882671180433,853.4065934065934,804.6520146520147,784.1025641025641,798.6080586080586,813.1135531135532,-0.163269,0.144348,0.963074,0.366364,-4.867401,-2.878571,1,1,1,1,1,30.000000
2023-09-13 18:21:01.530,0.4601575758752838,0.814393718020303,0.8944275803157704,1.194511295233026,0.1443645273336548,0.1394125152988242,0.4542402077796024,1.017481340613291,0.4293815307607959,-0.1355227678443912,0.4294578889432352,0.7692758742725623,0.3956822059125732,0.05696227898921651,0.174630145706978,0.7115768310583458,0.2302414284463631,-0.1310549162935045,-0.210841766600661,0.3954690406963312,956.5567765567766,787.7289377289378,829.6336996336996,876.7765567765568,885.2380952380953,-0.148132,0.190247,0.957947,5.016937,-0.605621,9.390869,1,1,1,1,1,30.000000
2023-09-13 18:21:02.308,,,,,,,,,,,,,,,,,,,,,,,,,,,,,,,,,,,,,,/muse/elements/blink
2023-09-13 18:21:02.529,0.4601575758752838,0.9889013266935621,1.080498578379523,1.194511295233026,0.1443645273336548,0.1470221648047674,0.5751182445432003,1.017481340613291,0.4293815307607959,-0.2826514157245588,0.5187421100576654,0.7692758742725623,0.3956822059125732,0.05958802572418465,0.2700158008065978,0.7115768310583458,0.2302414284463631,-0.2372645135648699,-0.02705932091682903,0.3954690406963312,872.7472527472528,791.7582417582418,796.5934065934066,734.1391941391942,811.0989010989011,-0.261108,0.114746,0.950378,-4.800110,-6.033783,-0.373840,1,1,1,1,1,30.000000
2023-09-13 18:21:03.530,0.4601575758752838,0.9889013266935621,1.471531294145201,1.194511295233026,0.1443645273336548,0.1470221648047674,1.132508043137495,1.017481340613291,0.4293815307607959,-0.2826514157245588,0.585869363963621,0.7692758742725623,0.3956822059125732,0.05958802572418465,0.2466385673504947,0.7115768310583458,0.2302414284463631,-0.2372645135648699,-0.009365997464887638,0.3954690406963312,861.0622710622711,778.0586080586081,782.893772893773,767.5824175824176,753.4798534798535,-0.218140,0.199585,0.932983,8.994598,-10.310516,11.529236,1,2,1,1,2,30.000000
2023-09-13 18:21:04.409,,,,,,,,,,,,,,,,,,,,,,,,,,,,,,,,,,,,,,/muse/elements/blink
2023-09-13 18:21:04.529,0.4601575758752838,0.9889013266935621,1.316410288471221,1.194511295233026,0.1443645273336548,0.1470221648047674,0.5907746758336095,1.017481340613291,0.4293815307607959,-0.2826514157245588,0.5685129705085158,0.7692758742725623,0.3956822059125732,0.05958802572418465,0.1528680836087642,0.7115768310583458,0.2302414284463631,-0.2372645135648699,-0.01361000210271207,0.3954690406963312,904.5787545787546,788.5347985347986,799.4139194139194,800.2197802197802,815.1282051282052,-0.108521,0.146545,0.973816,0.142059,-0.022430,-2.990723,1,2,1,1,2,30.000000
2023-09-13 18:21:05.538,0.4601575758752838,1.062084999104546,1.021002188578356,1.194511295233026,0.1443645273336548,0.6209252209559482,0.6136558538203869,1.017481340613291,0.4293815307607959,0.5242897121009482,0.5690284559885124,0.7692758742725623,0.3956822059125732,0.3147464445299893,0.4270863667386379,0.7115768310583458,0.2302414284463631,0.1244043735324489,-0.004615569878658334,0.3954690406963312,897.7289377289378,791.3553113553114,800.2197802197802,805.8608058608058,852.1978021978023,-0.186035,0.157593,0.961121,5.323486,0.014954,-0.717773,1,2,1,1,2,30.000000
2023-09-13 18:21:06.529,0.8224072409771652,0.8639932566457283,0.8179684023062151,1.194511295233026,0.5411676517766586,0.413591789324978,0.5920721424097013,1.017481340613291,0.7388049244377813,0.3542692030641344,0.5949924090344418,0.7692758742725623,0.6325083318661086,0.2288451185665237,0.5380332103248691,0.7115768310583458,0.6356204183123451,-0.1128701769416748,0.08816810104433168,0.3954690406963312,678.5347985347986,770.8058608058608,837.6923076923077,802.2344322344322,683.7728937728938,-0.191772,0.127075,0.968323,-5.585175,1.158905,22.572479,1,1,1,1,1,30.000000
2023-09-13 18:21:07.372,,,,,,,,,,,,,,,,,,,,,,,,,,,,,,,,,,,,,,/muse/elements/blink
2023-09-13 18:21:07.535,0.9300711331773641,0.7312883876957859,0.729523447827647,1.194511295233026,0.5679316640417372,0.2687554071763752,0.4160329957545181,1.017481340613291,0.7342783648915573,0.2594767698533332,0.3455683839490968,0.7692758742725623,0.6278245961764138,0.01751753332107563,0.5305604103511086,0.7115768310583458,0.6560189698962681,-0.1930058431964904,0.1158528052761423,0.3954690406963312,946.8864468864469,788.9377289377289,780.8791208791209,826.007326007326,988.7912087912089,-0.176025,0.099060,0.980042,3.768311,-5.854340,-8.344116,1,1,1,1,1,30.000000
2023-09-13 18:21:08.530,0.9300711331773641,0.6012946881666664,0.3851019136503344,1.194511295233026,0.5679316640417372,-0.1042854947260928,-0.1907979677571173,1.017481340613291,0.7342783648915573,0.2012700822094992,0.1807234108081675,0.7692758742725623,0.6278245961764138,0.02036674659259833,0.03132400263215306,0.7115768310583458,0.6560189698962681,-0.224751500773778,-0.07789196937215433,0.3954690406963312,876.7765567765568,808.6813186813187,812.3076923076924,793.3699633699634,834.8717948717949,-0.207947,0.164246,0.945129,4.336548,0.800018,-0.635529,1,1,1,1,1,30.000000
2023-09-13 18:21:09.016,,,,,,,,,,,,,,,,,,,,,,,,,,,,,,,,,,,,,,/muse/elements/blink
2023-09-13 18:21:09.530,0.9300711331773641,0.8207058035546703,0.9713700423145855,1.194511295233026,0.5679316640417372,0.2812136798671495,0.3076871725088925,1.017481340613291,0.7342783648915573,0.2573283270334494,0.2822858023356821,0.7692758742725623,0.6278245961764138,-0.04204732445806418,-0.07388462620677308,0.7115768310583458,0.6560189698962681,-0.2655960360201713,-0.2640663215577834,0.3954690406963312,848.974358974359,799.4139194139194,813.919413919414,794.5787545787546,887.2527472527473,-0.246277,0.099243,0.935608,-0.575714,-11.910553,-3.925323,1,2,1,1,2,30.000000
2023-09-13 18:21:10.532,0.6227964922988701,0.6965022633537076,1.129026184904955,0.2762179453469078,0.5180342695554849,0.3652136461421613,0.4242910617751928,0.3153812885650176,0.740297263721849,0.3330589258121297,0.4070328428908401,0.5657787288520822,0.8870348675906717,0.5339576768528267,0.4016827048148981,0.7644796498046336,0.8864058320747285,0.2586130589458133,0.1025861449326469,0.7236939284174808,933.1868131868132,802.6373626373627,793.7728937728938,808.2783882783883,1009.340659340659,-0.214417,0.079956,0.960144,0.306549,-12.067566,2.078552,1,1,1,1,1,30.000000
2023-09-13 18:21:11.530,0.6588740974336956,0.269857551560812,0.607283291063961,0.3998585827004971,0.3457232650735704,-0.1969444254534202,-0.3172389814450573,0.4302739888912341,0.7727315585554386,0.07135519961091875,0.3037497972264873,0.597045395742713,0.8062680584515198,0.5411856213886402,0.440828486692139,0.7230969708119352,0.7615426649780801,0.2694377439074885,0.1128466795805609,0.5321122796181246,884.0293040293041,794.5787545787546,786.1172161172161,792.5641025641025,798.6080586080586,-0.108154,0.079041,0.980408,-0.052338,-4.650574,-1.861725,1,1,1,1,1,30.000000
2023-09-13 18:21:12.534,0.3588431926887978,0.6229534723198873,0.2851804686705044,0.3311833274836985,-0.04487730692343517,-0.2770450137510472,-0.3767821782100886,0.3646923715129574,0.5441229445088106,0.1309677492300509,0.1849007983134889,0.5085321789232818,0.6063326747013595,0.1360147973137991,0.03000652728462199,0.6319721077391993,0.6539282248818156,-0.02368387151573341,-0.0816460592504725,0.3689630037622464,938.8278388278388,796.5934065934066,780.0732600732601,805.0549450549451,870.3296703296703,-0.111816,0.078918,0.989563,1.457977,-9.809570,-0.067291,1,1,1,1,1,30.000000
2023-09-13 18:21:13.200,,,,,,,,,,,,,,,,,,,,,,,,,,,,,,,,,,,,,,/muse/elements/blink
