TimeStamp,Delta_TP9,Delta_AF7,Delta_AF8,Delta_TP10,Theta_TP9,Theta_AF7,Theta_AF8,Theta_TP10,Alpha_TP9,Alpha_AF7,Alpha_AF8,Alpha_TP10,Beta_TP9,Beta_AF7,Beta_AF8,Beta_TP10,Gamma_TP9,Gamma_AF7,Gamma_AF8,Gamma_TP10,RAW_TP9,RAW_AF7,RAW_AF8,RAW_TP10,AUX_RIGHT,Accelerometer_X,Accelerometer_Y,Accelerometer_Z,Gyro_X,Gyro_Y,Gyro_Z,HeadBandOn,HSI_TP9,HSI_AF7,HSI_AF8,HSI_TP10,Battery,Elements
2023-09-12 16:04:58.936,,,,,,,,,,,,,,,,,,,,,,,,,,,,,,,,,,,,,,/muse/event/connected Muse-D424
2023-09-12 16:04:59.000,,,,,,,,,,,,,,,,,,,,,,,,,,,,,,,,,,,,,,/muse/elements/blink
2023-09-12 16:04:59.000,,,,,,,,,,,,,,,,,,,,,,,,,,,,,,,,,,,,,,/muse/elements/jaw_clench
2023-09-12 16:04:59.011,,,,,,,,,,,,,,,,,,,,,,,,,,,,,,,,,,,,,,/muse/elements/blink
2023-09-12 16:04:59.581,,,,,,,,,,,,,,,,,,,,,,,,,,,,,,,,,,,,,,/muse/elements/blink
2023-09-12 16:04:59.940,1.021905488313382,0.3519560923652597,0.3459540587145424,1.35879878122936,0.5247369426237912,0.0250653728154445,-0.1762772343511413,1.019490807658588,0.5936274674522602,0.3860516054679441,0.05840622188911021,0.880341385533017,0.910328385483639,0.9977400676560004,0.4101836097218354,0.5653879570056032,0.5791687583626431,0.9225390015775676,0.2604511866577879,0.1467606386146316,904.1758241758242,742.1978021978023,789.7435897435897,866.3003663003664,866.7032967032967,-0.528564,0.059631,0.829224,3.730927,-20.172424,2.654266,1,1,1,1,1,100.000000
2023-09-12 16:05:00.937,1.021905488313382,0.6637016514069142,0.5913221646340858,1.35879878122936,0.5247369426237912,0.5598922000673535,0.1926526083377989,1.019490807658588,0.5936274674522602,0.5183020759833227,0.2974357499217135,0.880341385533017,0.910328385483639,0.9644191349411634,0.4460106500183305,0.5653879570056032,0.5791687583626431,0.9207653076721332,0.2072663360177802,0.1467606386146316,889.2673992673992,778.8644688644689,805.4578754578755,882.014652014652,918.2783882783883,-0.347351,0.105469,0.926636,1.218719,-6.534729,-3.020630,1,1,1,1,1,100.000000
2023-09-12 16:05:01.941,0.8069544039279196,0.4904663467537981,0.964360270656796,1.413471093309079,0.7289725153778049,0.5614868220576762,0.2906861575022651,1.084190928716382,1.101407299344941,0.7069355535133562,0.3086639833291789,0.8775318809990394,0.9393151679088695,0.7834616232511703,0.4053513003538838,0.5420796740981381,0.7783727663950929,0.8128030754846184,0.1508740060891104,0.2018309397935265,877.5824175824176,776.4468864468864,770,823.5897435897436,872.3443223443223,-0.369629,0.045044,0.902039,6.744080,4.448700,-10.190887,1,1,1,1,1,100.000000
2023-09-12 16:05:02.937,0.9612722358076548,0.2720096895112246,1.088072198796169,1.413471093309079,0.7247391358470419,0.1958357809782295,0.3887500435028629,1.084190928716382,1.071705979699656,0.7578635340610713,0.6001622464602022,0.8775318809990394,1.035340008880706,0.7480561952471485,0.3783264173259901,0.5420796740981381,0.8057055161714735,0.7529534397557807,0.1338434543602881,0.2018309397935265,842.9304029304029,788.9377289377289,795.7875457875458,815.5311355311355,970.2564102564103,-0.467163,0.035583,0.827271,1.936493,6.063690,-9.577789,1,1,1,1,1,100.000000
2023-09-12 16:05:03.248,,,,,,,,,,,,,,,,,,,,,,,,,,,,,,,,,,,,,,/muse/elements/blink
2023-09-12 16:05:03.937,0.9554250332842967,0.3197465499861787,1.124465385867749,1.413471093309079,0.6534500365148372,0.1042951201449004,0.4300038216878473,1.084190928716382,0.9389895709848542,0.5103771481600773,0.4669373155271297,0.8775318809990394,1.040807119329241,0.7589772007118797,0.494026409818187,0.5420796740981381,0.8698399172377331,0.7046533018385095,-0.01108911960949615,0.2018309397935265,861.4652014652015,795.3846153846154,796.1904761904763,839.7069597069598,1033.113553113553,-0.553284,0.054016,0.841309,6.235657,2.220612,-0.022430,1,1,1,1,1,100.000000
2023-09-12 16:05:04.367,,,,,,,,,,,,,,,,,,,,,,,,,,,,,,,,,,,,,,/muse/elements/blink
2023-09-12 16:05:04.937,0.4137302923417488,0.2418383225625897,0.340112642414295,1.413471093309079,0.4280544768513841,-0.274793832201449,-0.2526825567147589,1.084190928716382,0.7461751768436788,0.6538132234672428,-0.04997938072113683,0.8775318809990394,0.9574270001508195,1.297064615644635,0.525088891658416,0.5420796740981381,0.9437347112742316,0.9665642976622968,0.2027068642320975,0.2018309397935265,880.4029304029305,765.9706959706959,790.952380952381,877.5824175824176,915.8608058608058,-0.378723,0.081116,0.907776,1.734619,-10.759125,-0.545807,1,1,1,1,1,100.000000
2023-09-12 16:05:05.937,0.4137302923417488,0.1858194740716217,0.415124060582694,0.2611507130706589,0.4280544768513841,-0.2580267926553304,0.1744491188225599,0.8395161613366007,0.7461751768436788,0.6517852747021162,0.2577116719579561,0.6761926087748752,0.9574270001508195,1.244690409095876,0.4292615388338853,0.4669573597922999,0.9437347112742316,1.10202868906767,0.05485639856956336,0.3993522444625786,873.5531135531136,786.9230769230769,793.3699633699634,858.6446886446887,899.7435897435897,-0.223694,0.038391,0.955505,-0.201874,1.704712,16.763000,1,2,1,1,2,100.000000
2023-09-12 16:05:06.938,1.119715584350925,0.1853079933958086,0.4914720561630273,0.865552946316017,1.039537651511536,-0.1781681472638928,0.1090558931005882,0.5256977153573057,0.7683929994635682,0.3736428986221966,0.351262217198926,0.8805306107825082,0.9709318860563291,1.159414112999668,0.4210439608167449,0.5380465304351411,0.9080019866676454,1.146323230620341,0.03506245990178563,0.2398369639784499,768.7912087912088,731.7216117216118,791.3553113553114,775.6410256410256,780.0732600732601,-0.302979,0.100342,0.939941,0.508423,-4.022522,-3.132782,1,1,1,1,1,100.000000
2023-09-12 16:05:07.410,,,,,,,,,,,,,,,,,,,,,,,,,,,,,,,,,,,,,,/muse/elements/blink
2023-09-12 16:05:07.829,,,,,,,,,,,,,,,,,,,,,,,,,,,,,,,,,,,,,,/muse/elements/jaw_clench
2023-09-12 16:05:07.917,,,,,,,,,,,,,,,,,,,,,,,,,,,,,,,,,,,,,,/muse/elements/blink
2023-09-12 16:05:07.937,0.9214929038767818,0.02589113900386202,0.2777847210215604,0.8601825646697094,1.125091958135193,0.1272669864106537,-0.04738762011383745,0.2335881672792295,0.7436757249223623,0.5146009043064035,0.1765050176531661,0.776460084143894,0.9678795684706127,1.089510162943156,0.4125172739713597,0.4951410186219729,0.6842047763143002,0.9675698195533075,0.199396642765748,0.3096022160420591,807.0695970695971,705.934065934066,805.4578754578755,824.7985347985348,917.4725274725275,-0.551270,0.081909,0.816223,6.213226,-4.463654,4.762726,1,1,1,1,1,100.000000
2023-09-12 16:05:08.114,,,,,,,,,,,,,,,,,,,,,,,,,,,,,,,,,,,,,,/muse/elements/blink
2023-09-12 16:05:08.356,,,,,,,,,,,,,,,,,,,,,,,,,,,,,,,,,,,,,,/muse/elements/blink
2023-09-12 16:05:08.937,0.9214929038767818,-0.01110116849572817,-0.05988285944552158,0.3202745028331143,1.125091958135193,0.05622406755687592,-0.4251737921290065,0.05002518544648783,0.7436757249223623,0.5044437893760171,-0.06621489284482181,0.07292733748696094,0.9678795684706127,1.120800317939328,0.3605051060723971,0.5446851872470818,0.6842047763143002,1.067810548638521,0.3754101929401942,0.3551233942879827,655.1648351648352,793.7728937728938,800.2197802197802,678.5347985347986,751.0622710622711,-0.288818,0.077759,0.937988,0.186920,-8.792725,1.794434,1,1,1,1,1,100.000000
2023-09-12 16:05:09.422,,,,,,,,,,,,,,,,,,,,,,,,,,,,,,,,,,,,,,/muse/elements/blink
2023-09-12 16:05:09.937,0.9214929038767818,-0.01110116849572817,-0.05988285944552158,0.3202745028331143,1.125091958135193,0.05622406755687592,-0.4251737921290065,0.05002518544648783,0.7436757249223623,0.5044437893760171,-0.06621489284482181,0.07292733748696094,0.9678795684706127,1.120800317939328,0.3605051060723971,0.5446851872470818,0.6842047763143002,1.067810548638521,0.3754101929401942,0.3551233942879827,571.3553113553114,828.4249084249085,834.8717948717949,649.5238095238095,751.0622710622711,-0.209473,0.109985,0.957397,11.005859,-27.866058,-33.406372,1,1,1,1,1,100.000000
2023-09-12 16:05:10.557,,,,,,,,,,,,,,,,,,,,,,,,,,,,,,,,,,,,,,/muse/elements/blink
2023-09-12 16:05:10.937,0.9214929038767818,-0.01110116849572817,-0.05988285944552158,0.3202745028331143,1.125091958135193,0.05622406755687592,-0.4251737921290065,0.05002518544648783,0.7436757249223623,0.5044437893760171,-0.06621489284482181,0.07292733748696094,0.9678795684706127,1.120800317939328,0.3605051060723971,0.5446851872470818,0.6842047763143002,1.067810548638521,0.3754101929401942,0.3551233942879827,757.9120879120879,767.1794871794872,817.948717948718,754.2857142857143,933.1868131868132,-0.067139,0.117004,0.984680,6.826324,-15.544281,-21.929474,1,2,1,1,2,100.000000
2023-09-12 16:05:11.165,,,,,,,,,,,,,,,,,,,,,,,,,,,,,,,,,,,,,,/muse/elements/blink
2023-09-12 16:05:11.937,0.7608076236283742,-0.01110116849572817,0.6956734771736933,0.6731325632277857,0.4599246087376864,0.05622406755687592,0.3117000946802222,0.2527689075976993,0.8527423064675785,0.5044437893760171,-0.1288188113152949,0.3134268340671167,1.393601211308944,1.120800317939328,0.7613550154083808,0.9062499426381844,0.9874969270674958,1.067810548638521,0.5684666517372227,0.5503733683600495,641.4652014652015,764.3589743589744,771.2087912087912,661.2087912087912,735.3479853479854,-0.019897,0.104431,0.978638,1.981354,-7.409515,1.263580,1,1,1,1,1,100.000000
2023-09-12 16:05:12.704,,,,,,,,,,,,,,,,,,,,,,,,,,,,,,,,,,,,,,/muse/elements/blink
2023-09-12 16:05:12.937,1.037539023419506,-0.01110116849572817,0.9770683932815351,0.9768795468932594,0.841975298649827,0.05622406755687592,0.824977423797811,0.9406559426081338,1.053650218041853,0.5044437893760171,0.4766285900193847,1.014606337666016,1.21162154432466,1.120800317939328,0.6677022753799486,0.9059998081409807,0.9011196443253459,1.067810548638521,0.4924441548106871,0.5426958260769064,577.8021978021978,769.1941391941392,804.2490842490843,618.4981684981685,691.8315018315019,-0.051331,0.100830,0.981323,0.500946,9.876862,0.478516,1,1,1,1,1,100.000000
2023-09-12 16:05:13.317,,,,,,,,,,,,,,,,,,,,,,,,,,,,,,,,,,,,,,/muse/elements/blink
2023-09-12 16:05:13.939,0.9585452432651781,-0.01110116849572817,0.9871014177130508,0.9041000353862283,0.9429825119027964,0.05622406755687592,0.7827463649350096,0.9554373628584018,0.9663067494002504,0.5044437893760171,0.3829935614655121,0.8503689101182947,1.028227238336354,1.120800317939328,0.6788480544052324,0.7533587829412522,0.6915901195509979,1.067810548638521,0.3664638296122367,0.3894152513857778,699.0842490842491,812.3076923076924,791.7582417582418,725.6776556776557,847.3626373626374,-0.436523,0.097900,0.893555,2.228088,-5.495453,0.097198,1,1,1,1,1,100.000000
2023-09-12 16:05:14.454,,,,,,,,,,,,,,,,,,,,,,,,,,,,,,,,,,,,,,/muse/elements/blink
2023-09-12 16:05:14.951,0.5192983344430055,-0.01110116849572817,0.7615692506381913,0.522199653541653,0.76984626221956,0.05622406755687592,0.1563000803889917,0.6185220442955772,0.8699190099438605,0.5044437893760171,0.03746129274919843,0.6848784399484514,1.115063417537106,1.120800317939328,0.6933467602392758,0.7201143098791248,0.6524589168555492,1.067810548638521,0.3564880958669583,0.3033389188907132,711.978021978022,779.2673992673992,803.4432234432235,707.948717948718,692.2344322344322,-0.532715,0.087402,0.848083,-5.973969,-8.688049,14.056396,1,1,4,1,1,100.000000
2023-09-12 16:05:15.937,0.5192983344430055,-0.01110116849572817,0.7615692506381913,0.522199653541653,0.76984626221956,0.05622406755687592,0.1563000803889917,0.6185220442955772,0.8699190099438605,0.5044437893760171,0.03746129274919843,0.6848784399484514,1.115063417537106,1.120800317939328,0.6933467602392758,0.7201143098791248,0.6524589168555492,1.067810548638521,0.3564880958669583,0.3033389188907132,704.7252747252747,794.981684981685,790.1465201465202,732.5274725274726,700.2930402930403,-0.424316,0.058960,0.888062,1.128998,-4.628143,7.020721,1,2,1,1,2,100.000000
2023-09-12 16:05:16.937,0.5192983344430055,-0.01110116849572817,0.4164195285133213,0.5892155146909872,0.76984626221956,0.05622406755687592,0.4498200834364333,0.4359563126104968,0.8699190099438605,0.5044437893760171,0.215294207799838,0.405501316940536,1.115063417537106,1.120800317939328,0.3864185589477566,0.7663665009002054,0.6524589168555492,1.067810548638521,0.2398370471249937,0.4954637227614677,790.5494505494506,800.2197802197802,784.5054945054945,766.7765567765568,782.0879120879121,-0.402344,0.057983,0.909668,-10.258179,-14.146118,21.151886,1,1,1,1,1,100.000000
2023-09-12 16:05:17.937,0.4830774955383218,-0.01110116849572817,0.6433761121678434,0.676523417004715,0.4462255942659759,0.05622406755687592,0.2089445060783514,0.2752144254342526,0.760530261984392,0.5044437893760171,0.5566698396802809,0.4431939259244783,0.9086521129924128,1.120800317939328,0.4284956018659429,0.6931847528595587,0.7717125120319202,1.067810548638521,0.352132030503203,0.4897010880188398,550.8058608058608,784.9084249084249,830.0366300366301,773.6263736263736,685.3846153846154,-0.262207,0.080200,0.948608,-0.471039,-0.373840,0.037384,1,1,1,1,1,100.000000
2023-09-12 16:05:18.713,,,,,,,,,,,,,,,,,,,,,,,,,,,,,,,,,,,,,,/muse/elements/jaw_clench
2023-09-12 16:05:18.936,0.5440357107311434,-0.01110116849572817,0.7801188149827304,0.7452601088151782,0.488673282043097,0.05622406755687592,0.09932022561125242,0.06780316828587082,0.6973605788218479,0.5044437893760171,0.4900668509213115,0.4161313634472725,0.763103239473455,1.120800317939328,0.5704948740828447,0.6040952220631802,0.4995359578463667,1.067810548638521,0.3511853248192075,0.5136298421751971,713.1868131868132,776.4468864468864,799.0109890109891,726.4835164835165,628.974358974359,-0.449951,0.178101,0.875671,5.644989,-0.710297,-2.130890,1,1,1,1,1,100.000000
2023-09-12 16:05:19.937,0.567875438718334,-0.01110116849572817,0.8842488924335691,0.84963301697131,0.4547364818861978,0.05622406755687592,0.2002943842489432,0.5378581999078869,0.6668806735566197,0.5044437893760171,0.1983946962401246,0.8705869992043497,0.7048392814238653,1.120800317939328,0.8903716698228431,0.9209108438466289,0.4551883299095712,1.067810548638521,0.6514907728089818,0.5611585657472565,746.6300366300367,752.6739926739926,798.2051282051282,731.7216117216118,707.1428571428571,-0.446899,0.099915,0.857117,5.824432,-6.175842,-7.917938,1,1,1,1,1,100.000000
2023-09-12 16:05:20.937,0.567875438718334,-0.01110116849572817,0.8323382750536071,0.864495357985274,0.4547364818861978,0.05622406755687592,0.4092747724218451,0.5193189063658807,0.6668806735566197,0.5044437893760171,0.333514205892477,0.8236085523359035,0.7048392814238653,1.120800317939328,0.4810365258956745,0.757870975562301,0.4551883299095712,1.067810548638521,0.0530351929312925,0.3798454672016763,757.1062271062272,765.9706959706959,799.8168498168499,770.4029304029305,768.7912087912088,-0.289673,0.052979,0.955566,-1.188812,-1.263580,1.405640,1,1,1,1,1,100.000000
2023-09-12 16:05:21.936,0.6633978972481691,-0.1072531859645594,0.4993759556040941,0.8973145872628792,0.2442795904441339,0.1491432460409178,0.09416804813641343,0.5751036628363837,0.6788100414388505,0.7080391605954695,0.2912960207004342,0.6844945134951489,0.9944375507212784,1.001713898096279,0.4162023238653669,0.7871264610112418,0.5093433705842413,0.8849267863905349,0.1017188840161935,0.3723161371131318,791.3553113553114,763.5531135531136,801.8315018315019,774.0293040293041,635.4212454212454,-0.294617,0.065002,0.932068,1.271057,-28.591309,-3.992615,1,1,1,1,1,100.000000
2023-09-12 16:05:22.568,,,,,,,,,,,,,,,,,,,,,,,,,,,,,,,,,,,,,,/muse/elements/blink
2023-09-12 16:05:22.937,0.7883413697465907,0.1108735261180364,0.6475069025428777,0.9171141001120298,0.2968077663578009,0.09791726910450881,0.1513836675903688,0.5548816309213072,0.4618649538290754,0.6024067040592285,0.1207430097831886,0.5424115580452191,0.8075055321169495,1.020858432445135,0.6082140729833941,0.7579263815222979,0.4388689262851553,0.8510750753241372,0.2317145187488629,0.325994598476134,762.3443223443223,814.7252747252747,778.8644688644689,782.0879120879121,822.3809523809524,-0.459717,0.044128,0.863464,6.616974,-26.460419,0.927124,1,1,1,1,1,100.000000
2023-09-12 16:05:23.936,0.7745284705083203,0.2079506902814233,0.6984236043671668,0.9171141001120298,0.2840832664341589,0.1353683098085467,0.2754318669895234,0.5548816309213072,0.4044645124864792,0.2852510791837617,0.3518936625296475,0.5424115580452191,0.7972930321815782,1.059834156185524,0.6196551800022604,0.7579263815222979,0.4712175727155454,0.9267790795479764,0.3534578918220936,0.325994598476134,786.9230769230769,778.4615384615385,810.6959706959707,794.1758241758242,763.1501831501831,-0.230896,0.073181,0.934387,0.687866,-30.894165,3.708496,1,1,1,1,1,100.000000
2023-09-12 16:05:24.808,,,,,,,,,,,,,,,,,,,,,,,,,,,,,,,,,,,,,,/muse/elements/blink
2023-09-12 16:05:24.937,0.7745284705083203,0.7309061569202214,0.5952621131581033,0.9171141001120298,0.2840832664341589,0.21603404473733,-0.07750201053011971,0.5548816309213072,0.4044645124864792,0.383651770527851,-0.05518667988051524,0.5424115580452191,0.7972930321815782,0.6375159187676737,0.1882460315089594,0.7579263815222979,0.4712175727155454,0.7776435286214026,-0.1022164344466592,0.325994598476134,729.7069597069598,761.5384615384615,823.1868131868132,737.7655677655678,782.893772893773,-0.300842,0.077148,0.938538,2.235565,20.942535,-0.575714,1,2,1,1,2,100.000000
2023-09-12 16:05:25.937,0.7745284705083203,0.395344244404278,0.3829894879247356,0.9171141001120298,0.2840832664341589,0.2342327342896208,-0.3747077380923289,0.5548816309213072,0.4044645124864792,0.4960706740217212,0.4009171146808406,0.5424115580452191,0.7972930321815782,0.9669739275890222,0.4058906571053431,0.7579263815222979,0.4712175727155454,0.8839823865118022,0.137041465620643,0.325994598476134,799.4139194139194,777.2527472527473,809.0842490842491,791.7582417582418,834.4688644688645,-0.498840,0.068481,0.854919,1.106567,-3.117828,-0.157013,1,2,1,1,2,100.000000
2023-09-12 16:05:26.937,0.3453890020925116,0.01236043411128658,0.1894221727303389,0.8004396423871127,0.2019216348687655,0.2202538956940624,-0.1537991425347055,0.3765314442958371,0.5489243034388583,0.6197042485765977,0.4522540207156256,0.7241630456247019,0.8806639166781317,1.082368363595535,0.5231888121982272,0.6589043342104298,0.7013710759499152,0.9547175487201359,0.3137513654102885,0.1220490076175982,694.2490842490843,784.1025641025641,793.3699633699634,730.1098901098901,673.2967032967033,-0.464539,0.069397,0.884277,1.876678,-10.258179,-2.145844,1,1,1,1,1,100.000000
2023-09-12 16:05:27.944,0.5187760871433135,0.06631515221365369,-0.06484628097616428,0.574284538275499,0.1831693211591993,0.02854330503369027,-0.3656700394948489,0.02173667299631914,0.452142700881741,0.5093439475180898,0.3593026140065264,0.6813653895707217,0.8459569455911737,0.8793241256327923,0.4717278144118653,0.5661313106454423,0.5938793509386341,0.695426883481728,0.1385841383177126,0.1073632034128315,711.1721611721612,786.1172161172161,805.8608058608058,749.047619047619,705.5311355311355,-0.403992,0.101379,0.879700,1.555176,-4.201965,1.734619,1,1,1,1,1,100.000000
2023-09-12 16:05:28.937,0.7004284848524263,-0.116612049481946,0.05269451584125264,0.5049465781807745,0.3379384797040818,-0.3587897064687695,-0.1345545903872217,-0.1069368080681037,0.460869751545074,0.2620426439288295,-0.04838804752883147,0.3642299067163488,0.6760911525345448,0.6978548516444097,0.5545137573744954,0.4709455022615619,0.4600710750249218,0.6204085768135083,0.07102616298457945,0.3109916910261041,744.2124542124542,787.3260073260074,803.4432234432235,778.0586080586081,884.0293040293041,-0.330688,0.072205,0.925842,0.022430,-6.362762,0.022430,1,1,1,1,1,100.000000
2023-09-12 16:05:29.937,0.7251675257447933,-0.05366179686036682,0.3304154489476723,0.7045541744523179,0.4163849306302547,-0.2245672422443002,-0.2218491310919591,0.1420821226185069,0.6814285823592524,0.3476818827078631,-0.01434977727208821,0.3505017086911105,0.665759811064371,0.7936539108019057,0.2782055394076102,0.5323534434806837,0.2304917552649007,0.656407245548369,0.1308379649905895,0.1974484239283456,740.1831501831502,793.3699633699634,787.3260073260074,750.6593406593407,783.2967032967033,-0.314087,0.061462,0.929016,2.676697,-3.244934,-3.745880,1,1,1,1,1,100.000000
2023-09-12 16:05:30.936,0.5802800402529634,0.1835633394045601,0.716554689139834,0.9110823864765315,0.3447802043901102,0.05847625024966775,-0.1638577643273593,0.2904208994545535,0.6470805114393327,0.2055253214328902,0.1385620122861936,0.5533060787824815,0.5608681924801766,0.74820147027128,0.4401872605491877,0.572970343596003,0.3334524001125883,0.6892632715531751,0.3645345019891052,0.2379199151756787,739.3772893772893,796.5934065934066,804.6520146520147,726.8864468864469,693.4432234432235,-0.322510,0.055603,0.941406,-3.095398,-8.321686,2.041168,1,1,1,1,1,100.000000
2023-09-12 16:05:31.936,0.5623370870557989,0.2348852250616632,0.7987537124999632,0.9611788155878503,0.6953514258279514,0.2954179554145133,0.1104379246485628,0.4780297367348417,0.4184082901801973,-0.06175491584871855,0.2381495831972018,0.4697903452826404,0.8016457663654767,0.8416461289122619,0.5450699094088551,0.6644517453383736,0.6609494089582328,0.7176034463115568,0.4984030897167641,0.3224614139470803,762.3443223443223,775.6410256410256,806.2637362637363,782.0879120879121,890.8791208791209,-0.198303,0.080322,0.967285,1.091614,-6.654358,2.609406,1,1,1,1,1,100.000000
2023-09-12 16:05:32.937,0.8047799981837507,0.2348852250616632,0.8032566769146312,0.9204412493903876,0.6670416456756771,0.2954179554145133,0.06751132763795412,0.4775189827136517,0.4535847793033903,-0.06175491584871855,0.3837549462320797,0.4674704782738624,0.8134478514213613,0.8416461289122619,0.3176333983432107,0.4543552619777787,0.5884660387477453,0.7176034463115568,0.2892215853837062,0.1635343754054116,744.2124542124542,756.3003663003664,800.6227106227107,755.4945054945055,705.5311355311355,-0.167175,0.026123,0.944824,3.244934,-3.110352,3.192596,1,1,1,1,1,100.000000
2023-09-12 16:05:33.939,0.8325538175145197,0.3643476243423981,0.584320759627095,0.8877941939782933,0.5651807680052083,0.2987971640609322,0.08525840386466468,0.3121102194820381,0.6016628478223203,0.5695216811131391,0.374885112245193,0.4381784790938758,0.7929050496466672,0.6888886676195327,0.2101042086216289,0.5263535878193315,0.4510196797797084,0.5996013995308177,0.1004841708167173,0.2019462038853681,713.992673992674,783.2967032967033,807.8754578754579,754.2857142857143,660.4029304029305,-0.202148,0.061646,0.961975,2.856140,-0.261688,-1.472931,1,1,1,1,1,100.000000
2023-09-12 16:05:34.941,0.7853584385733823,0.3039172634544929,0.3913164199634355,0.8737277351283601,0.778438986427551,0.2304558756024004,0.3588360117080333,0.73007099047729,0.7153347381181066,0.5660398194722909,0.2485587352862708,0.724953634839945,0.74510057207731,0.6599932902566824,0.2789093720916612,0.4790035569801246,0.4478136992927781,0.5761055998052912,0.1181184289868773,0.3340094334891503,793.7728937728938,780.4761904761905,813.919413919414,806.6666666666667,924.3223443223443,-0.316528,0.045959,0.931396,-0.433655,-6.945953,-1.330872,1,1,1,1,1,100.000000
2023-09-12 16:05:35.942,0.8365477966845921,0.3502111766818147,0.6186930428077168,0.9328618910080276,0.7530284690353918,0.08089379196636837,0.1082632843192124,0.7240781219641219,0.8221425447524242,0.529568416192252,0.1454476025101009,0.8033027048978687,0.8520742437160449,0.7879472638107443,0.31886024370616,0.526810942184479,0.572045489249653,0.7097978548923891,0.2358263946289846,0.313481234859431,784.5054945054945,765.9706959706959,804.6520146520147,780.0732600732601,837.2893772893773,-0.314941,0.066589,0.935852,0.613098,-3.454285,-2.198181,1,1,1,1,1,100.000000
2023-09-12 16:05:36.370,,,,,,,,,,,,,,,,,,,,,,,,,,,,,,,,,,,,,,/muse/elements/blink
2023-09-12 16:05:36.588,,,,,,,,,,,,,,,,,,,,,,,,,,,,,,,,,,,,,,/muse/elements/jaw_clench
2023-09-12 16:05:36.850,,,,,,,,,,,,,,,,,,,,,,,,,,,,,,,,,,,,,,/muse/elements/blink
2023-09-12 16:05:36.937,0.7849689888302749,0.4808982864023371,0.4795276611072844,0.4612867794566874,0.4405624333913685,0.07932601268003417,-0.3505811983440582,0.3459924316054729,0.6568321814386522,0.5244552295134803,-0.1326511608167743,0.6486614027863833,0.8283001274143621,1.019883795629918,0.4408093943863839,0.3892911428364329,0.5535114606946105,0.7452174703037598,0.1083797102824357,0.1714120181763578,546.7765567765568,826.8131868131868,747.032967032967,608.4249084249085,747.4358974358975,-0.432739,0.079712,0.895020,4.501038,-7.147827,2.325287,1,1,1,1,1,100.000000
2023-09-12 16:05:37.179,,,,,,,,,,,,,,,,,,,,,,,,,,,,,,,,,,,,,,/muse/elements/blink
2023-09-12 16:05:37.463,,,,,,,,,,,,,,,,,,,,,,,,,,,,,,,,,,,,,,/muse/elements/blink
2023-09-12 16:05:37.880,,,,,,,,,,,,,,,,,,,,,,,,,,,,,,,,,,,,,,/muse/elements/blink
2023-09-12 16:05:37.937,0.7551411944062824,0.4808982864023371,-0.2289690523954884,-0.2742315386508671,0.3696952942519688,0.07932601268003417,-0.3766047193416394,0.2702241775308685,0.5639841296047112,0.5244552295134803,-0.2447840474991273,0.6474253027776039,0.783631593329612,1.019883795629918,0.5683559777806493,0.4238691245572752,0.5628286643910656,0.7452174703037598,0.04397129773251786,0.1912118866025784,774.8351648351648,823.1868131868132,756.3003663003664,771.6117216117216,846.959706959707,-0.509460,0.070129,0.852905,1.405640,7.925415,-1.502838,1,1,1,1,1,100.000000
2023-09-12 16:05:38.937,0.7551411944062824,0.4808982864023371,-0.2289690523954884,-0.2742315386508671,0.3696952942519688,0.07932601268003417,-0.3766047193416394,0.2702241775308685,0.5639841296047112,0.5244552295134803,-0.2447840474991273,0.6474253027776039,0.783631593329612,1.019883795629918,0.5683559777806493,0.4238691245572752,0.5628286643910656,0.7452174703037598,0.04397129773251786,0.1912118866025784,775.6410256410256,815.5311355311355,808.2783882783883,784.5054945054945,842.9304029304029,-0.433411,0.107605,0.887024,3.043060,-7.372131,-0.800018,1,2,1,1,2,100.000000
2023-09-12 16:05:39.937,0.7551411944062824,0.4808982864023371,0.7784183510215905,-0.2742315386508671,0.3696952942519688,0.07932601268003417,-0.0147264967080658,0.2702241775308685,0.5639841296047112,0.5244552295134803,0.4462872493232318,0.6474253027776039,0.783631593329612,1.019883795629918,0.5413000977827264,0.4238691245572752,0.5628286643910656,0.7452174703037598,0.3907144331779503,0.1912118866025784,753.0769230769231,748.2417582417582,817.5457875457876,757.5091575091575,816.3369963369963,-0.446533,0.067871,0.883057,1.196289,-1.293488,0.067291,1,2,1,1,2,100.000000
2023-09-12 16:05:40.948,0.7551411944062824,0.4808982864023371,0.7891187787283872,-0.2742315386508671,0.3696952942519688,0.07932601268003417,0.03967542164672862,0.2702241775308685,0.5639841296047112,0.5244552295134803,0.3090781900304854,0.6474253027776039,0.783631593329612,1.019883795629918,0.6540190689367084,0.4238691245572752,0.5628286643910656,0.7452174703037598,0.1564966734954573,0.1912118866025784,867.1062271062272,780.4761904761905,832.0512820512821,786.1172161172161,883.6263736263736,-0.721008,0.004150,0.696167,-2.370148,2.751465,-7.170258,1,2,1,1,2,100.000000
2023-09-12 16:05:41.936,0.7551411944062824,0.4808982864023371,0.8132495133579121,-0.2742315386508671,0.3696952942519688,0.07932601268003417,0.1285282532897907,0.2702241775308685,0.5639841296047112,0.5244552295134803,0.046054589315931,0.6474253027776039,0.783631593329612,1.019883795629918,0.6635650638526138,0.4238691245572752,0.5628286643910656,0.7452174703037598,0.09253635014988447,0.1912118866025784,781.2820512820513,745.4212454212454,815.1282051282052,773.6263736263736,812.7106227106227,-0.473511,-0.120850,0.843018,7.073059,-11.618958,-4.411316,1,2,1,1,2,100.000000
2023-09-12 16:05:42.936,0.7551411944062824,0.4808982864023371,1.292591190720819,1.224154231859271,0.3696952942519688,0.07932601268003417,0.2223595432467099,0.6086679440145958,0.5639841296047112,0.5244552295134803,0.3517436644212507,0.6403889438085573,0.783631593329612,1.019883795629918,0.6151199195534657,0.7711340678234301,0.5628286643910656,0.7452174703037598,0.2763919356166153,0.3867294289751157,758.3150183150184,778.8644688644689,793.3699633699634,793.3699633699634,1059.304029304029,-0.432129,0.172241,0.864624,4.127197,-3.147736,1.869202,1,2,1,1,2,100.000000
2023-09-12 16:05:43.945,0.923466048214982,0.6160773505514437,0.8904429213051137,0.978823116215411,0.6002920033646677,0.485107042892444,-0.04223726708098169,0.4498483170637392,0.6440831575335061,0.4220436746532942,0.3874279000353167,0.6729410947665944,0.9962528899867437,1.05757212901275,0.493824537696548,0.5832566310622366,0.8060928756080821,1.055414817872036,0.1035512044860915,0.1175105246561119,855.8241758241759,789.3406593406594,805.4578754578755,843.3333333333334,921.9047619047619,-0.467834,0.135071,0.872192,-13.106842,-0.082245,-11.746063,1,1,1,1,1,100.000000
2023-09-12 16:05:44.936,0.4417197757904851,0.7718110645835699,0.6565664455550565,0.517317536274724,0.5696735841258783,0.4458380143637459,-0.05525451896111587,0.4348343892373159,0.9739305969736014,0.8642639732430529,0.1289661222305049,0.6911651653290523,1.100423366514166,1.111507823809857,0.3741118437840716,0.5189203368982745,0.8083088960518006,0.935573762571987,0.1646189795352969,0.225769119090578,777.6556776556777,799.8168498168499,788.9377289377289,788.5347985347986,716.4102564102565,-0.507874,0.129272,0.891602,-1.966400,-0.882263,2.945862,1,1,1,1,1,100.000000
2023-09-12 16:05:45.006,,,,,,,,,,,,,,,,,,,,,,,,,,,,,,,,,,,,,,/muse/elements/blink
2023-09-12 16:05:45.093,,,,,,,,,,,,,,,,,,,,,,,,,,,,,,,,,,,,,,/muse/elements/jaw_clench
2023-09-12 16:05:45.378,,,,,,,,,,,,,,,,,,,,,,,,,,,,,,,,,,,,,,/muse/elements/blink
2023-09-12 16:05:45.936,0.2907023842718744,1.039217778070824,0.4165037136971138,0.5854269210218322,0.1892388653310337,0.505486655518297,-0.04189736454903368,0.1919442510959923,0.9497729855214325,0.8021617295235214,-0.001813376052972413,0.5613619684414993,1.080835479558075,1.208991722088942,0.4219226629614416,0.5902518561135417,0.7397093579319678,0.8022032451850617,0.2304438165543524,0.2121615192892373,752.6739926739926,802.6373626373627,816.7399267399268,760.7326007326008,881.6117216117217,-0.249207,0.090698,0.941650,4.187012,-10.564728,1.188812,1,1,1,1,1,100.000000
2023-09-12 16:05:46.335,,,,,,,,,,,,,,,,,,,,,,,,,,,,,,,,,,,,,,/muse/elements/blink
2023-09-12 16:05:46.936,0.296211935158227,1.039217778070824,0.3476417263009596,0.6223141137117457,0.1135195760422664,0.505486655518297,-0.09612849171429293,0.1270638209584252,0.9112352682563919,0.8021617295235214,-0.02311108549426776,0.5004421901343918,1.078026249690238,1.208991722088942,0.4499688527399667,0.5950304686528028,0.7245312418441331,0.8022032451850617,0.215729558338962,0.1428501003179782,813.5164835164835,830.0366300366301,818.3516483516484,819.96336996337,890.8791208791209,-0.417603,0.068665,0.902588,3.282318,-19.192963,-5.054321,1,1,1,1,1,100.000000
2023-09-12 16:05:47.937,0.296211935158227,1.039217778070824,1.034303092177435,0.6223141137117457,0.1135195760422664,0.505486655518297,0.2018362517134671,0.1270638209584252,0.9112352682563919,0.8021617295235214,0.1444539759345436,0.5004421901343918,1.078026249690238,1.208991722088942,0.806946906260833,0.5950304686528028,0.7245312418441331,0.8022032451850617,0.5402331540073302,0.1428501003179782,819.96336996337,783.2967032967033,792.1611721611722,812.7106227106227,855.0183150183151,-0.078247,0.094177,0.963989,1.607513,-19.843445,-11.140442,1,2,1,1,2,100.000000
2023-09-12 16:05:48.941,0.296211935158227,1.039217778070824,0.8911284123410002,0.6223141137117457,0.1135195760422664,0.505486655518297,0.02200188015007633,0.1270638209584252,0.9112352682563919,0.8021617295235214,0.3430482573362356,0.5004421901343918,1.078026249690238,1.208991722088942,0.613174084684344,0.5950304686528028,0.7245312418441331,0.8022032451850617,0.3294098488819744,0.1428501003179782,863.8827838827839,776.8498168498169,796.5934065934066,863.8827838827839,993.6263736263736,-0.081543,0.066040,0.989136,1.510315,-1.943970,-2.310333,1,2,1,1,2,100.000000
2023-09-12 16:05:49.781,,,,,,,,,,,,,,,,,,,,,,,,,,,,,,,,,,,,,,/muse/elements/blink
2023-09-12 16:05:49.944,0.4817820256121318,0.4592557276281691,0.6370701822368307,0.6223141137117457,0.3021673152956431,-0.03217104334740224,-0.1686668123930065,0.1270638209584252,0.5554356877723499,0.4228023238927122,0.2937318639038246,0.5004421901343918,0.9368221623451014,0.9927129046922019,0.4130858225010905,0.5950304686528028,0.895721750099028,0.8970523011356509,-0.004543462077730652,0.1428501003179782,851.7948717948718,806.2637362637363,784.1025641025641,811.9047619047619,909.8168498168499,-0.293640,0.066101,0.958679,3.334656,-5.525360,1.173859,1,1,1,1,1,100.000000
2023-09-12 16:05:50.898,,,,,,,,,,,,,,,,,,,,,,,,,,,,,,,,,,,,,,/muse/elements/blink
2023-09-12 16:05:50.936,0.5019633454974596,0.54386140509475,0.3407479307932024,0.6223141137117457,0.3416701877355784,0.005030391750328963,-0.3933623114098168,0.1270638209584252,0.4454415818420177,0.2913478263669816,0.02981231838887987,0.5004421901343918,0.9779022330108118,1.047626761057922,0.4896250115129772,0.5950304686528028,0.9491893973451114,1.038319230369968,0.1085011255451234,0.1428501003179782,947.6923076923077,838.901098901099,853.8095238095239,834.8717948717949,896.9230769230769,-0.555664,0.090820,0.826782,1.435547,6.474915,-6.430054,1,1,1,1,1,100.000000
2023-09-12 16:05:51.010,,,,,,,,,,,,,,,,,,,,,,,,,,,,,,,,,,,,,,/muse/elements/jaw_clench
2023-09-12 16:05:51.296,,,,,,,,,,,,,,,,,,,,,,,,,,,,,,,,,,,,,,/muse/elements/blink
2023-09-12 16:05:51.473,,,,,,,,,,,,,,,,,,,,,,,,,,,,,,,,,,,,,,/muse/elements/blink
2023-09-12 16:05:51.936,0.5019633454974596,0.54386140509475,0.5352595734468308,0.6223141137117457,0.3416701877355784,0.005030391750328963,-0.2889847035986849,0.1270638209584252,0.4454415818420177,0.2913478263669816,0.02811587274587929,0.5004421901343918,0.9779022330108118,1.047626761057922,0.5453026326894794,0.5950304686528028,0.9491893973451114,1.038319230369968,0.2549755333232603,0.1428501003179782,757.9120879120879,850.1831501831502,827.6190476190476,754.2857142857143,848.974358974359,-0.481689,0.103333,0.854248,-3.977661,-8.082428,14.071350,1,1,4,1,1,100.000000
2023-09-12 16:05:52.217,,,,,,,,,,,,,,,,,,,,,,,,,,,,,,,,,,,,,,/muse/elements/blink
2023-09-12 16:05:52.523,,,,,,,,,,,,,,,,,,,,,,,,,,,,,,,,,,,,,,/muse/elements/blink
2023-09-12 16:05:52.937,0.5019633454974596,0.54386140509475,0.5352595734468308,0.6223141137117457,0.3416701877355784,0.005030391750328963,-0.2889847035986849,0.1270638209584252,0.4454415818420177,0.2913478263669816,0.02811587274587929,0.5004421901343918,0.9779022330108118,1.047626761057922,0.5453026326894794,0.5950304686528028,0.9491893973451114,1.038319230369968,0.2549755333232603,0.1428501003179782,1006.520146520147,742.6007326007326,788.1318681318681,938.4249084249085,847.7655677655678,-0.440857,0.087463,0.882507,2.788849,-1.472931,-2.594452,1,2,1,1,2,100.000000
2023-09-12 16:05:53.024,,,,,,,,,,,,,,,,,,,,,,,,,,,,,,,,,,,,,,/muse/elements/blink
2023-09-12 16:05:53.220,,,,,,,,,,,,,,,,,,,,,,,,,,,,,,,,,,,,,,/muse/elements/blink
2023-09-12 16:05:53.638,,,,,,,,,,,,,,,,,,,,,,,,,,,,,,,,,,,,,,/muse/elements/blink
2023-09-12 16:05:53.936,0.5019633454974596,0.54386140509475,0.5352595734468308,0.6223141137117457,0.3416701877355784,0.005030391750328963,-0.2889847035986849,0.1270638209584252,0.4454415818420177,0.2913478263669816,0.02811587274587929,0.5004421901343918,0.9779022330108118,1.047626761057922,0.5453026326894794,0.5950304686528028,0.9491893973451114,1.038319230369968,0.2549755333232603,0.1428501003179782,782.893772893773,789.7435897435897,799.4139194139194,797.8021978021978,967.032967032967,-0.494080,0.051270,0.854248,3.551483,-0.179443,-3.686066,1,2,1,1,2,100.000000
2023-09-12 16:05:54.841,,,,,,,,,,,,,,,,,,,,,,,,,,,,,,,,,,,,,,/muse/elements/blink
2023-09-12 16:05:54.942,0.2540192151453518,0.54386140509475,0.4031094217157632,0.6223141137117457,0.6668251573346047,0.005030391750328963,-0.162719237980997,0.1270638209584252,0.9410855363337525,0.2913478263669816,0.1638490105290695,0.5004421901343918,1.108775698292676,1.047626761057922,0.5632513440119973,0.5950304686528028,1.084737548530188,1.038319230369968,0.4743260571910191,0.1428501003179782,894.908424908425,825.6043956043957,748.6446886446887,847.3626373626374,1008.534798534799,-0.623230,0.089539,0.761963,-0.127106,22.288361,5.592651,1,1,1,1,1,100.000000
2023-09-12 16:05:55.653,,,,,,,,,,,,,,,,,,,,,,,,,,,,,,,,,,,,,,/muse/elements/blink
2023-09-12 16:05:55.936,0.2540192151453518,0.54386140509475,0.7972530114281172,0.6223141137117457,0.6668251573346047,0.005030391750328963,0.3767088198591679,0.1270638209584252,0.9410855363337525,0.2913478263669816,0.3187224278219132,0.5004421901343918,1.108775698292676,1.047626761057922,0.6531519147620199,0.5950304686528028,1.084737548530188,1.038319230369968,0.4689853317036772,0.1428501003179782,693.8461538461538,759.92673992674,824.3956043956044,757.1062271062272,745.0183150183151,-0.736328,0.072815,0.712158,2.011261,-22.744446,1.697235,1,1,1,1,1,100.000000
2023-09-12 16:05:56.935,0.2540192151453518,0.54386140509475,1.037577541604891,0.6223141137117457,0.6668251573346047,0.005030391750328963,0.5582208073534288,0.1270638209584252,0.9410855363337525,0.2913478263669816,0.5249982175317042,0.5004421901343918,1.108775698292676,1.047626761057922,0.6844171151355003,0.5950304686528028,1.084737548530188,1.038319230369968,0.5067954364921912,0.1428501003179782,817.5457875457876,768.7912087912088,836.4835164835165,779.2673992673992,823.1868131868132,-0.440613,0.062988,0.880371,0.515900,-4.284210,-0.328979,1,1,1,1,1,100.000000
2023-09-12 16:05:57.936,0.2540192151453518,0.54386140509475,0.9569110960998544,0.6223141137117457,0.6668251573346047,0.005030391750328963,0.3817686022947501,0.1270638209584252,0.9410855363337525,0.2913478263669816,0.5420548255297314,0.5004421901343918,1.108775698292676,1.047626761057922,0.5657353742576097,0.5950304686528028,1.084737548530188,1.038319230369968,0.4755549174428256,0.1428501003179782,489.96336996337,701.9047619047619,786.9230769230769,577.3992673992674,758.7179487179487,-0.455383,0.064636,0.882385,1.016846,5.659943,-5.510406,1,2,1,1,2,100.000000
2023-09-12 16:05:57.997,,,,,,,,,,,,,,,,,,,,,,,,,,,,,,,,,,,,,,/muse/elements/jaw_clench
2023-09-12 16:05:58.086,,,,,,,,,,,,,,,,,,,,,,,,,,,,,,,,,,,,,,/muse/elements/blink
2023-09-12 16:05:58.936,0.2540192151453518,0.54386140509475,0.9569110960998544,0.6223141137117457,0.6668251573346047,0.005030391750328963,0.3817686022947501,0.1270638209584252,0.9410855363337525,0.2913478263669816,0.5420548255297314,0.5004421901343918,1.108775698292676,1.047626761057922,0.5657353742576097,0.5950304686528028,1.084737548530188,1.038319230369968,0.4755549174428256,0.1428501003179782,745.0183150183151,765.9706959706959,805.0549450549451,759.1208791208792,730.9157509157509,-0.442139,0.010925,0.885132,-9.809570,-22.056580,48.240356,1,2,1,1,2,100.000000
2023-09-12 16:05:59.936,0.727535483640235,0.54386140509475,0.7772771538474292,0.6223141137117457,0.8165495792089015,0.005030391750328963,0.008063992710638941,0.1270638209584252,0.5662576364763169,0.2913478263669816,0.2061549521020305,0.5004421901343918,1.200158631307761,1.047626761057922,0.47837642672257,0.5950304686528028,0.7903116805114608,1.038319230369968,0.147484779333293,0.1428501003179782,718.021978021978,770.8058608058608,807.4725274725275,775.6410256410256,636.6300366300367,-0.184692,0.025452,0.968140,3.551483,-6.773987,-1.899109,1,2,1,1,2,100.000000
2023-09-12 16:06:00.936,0.7406992864746201,-0.1791533571154886,0.5498448809106856,0.7499928849099933,0.7199697321459337,0.1671622617321755,-0.061766455535329,0.2680067706055476,0.6538658142485955,0.2548051876467582,0.2027914943683248,0.3995012420860798,1.173995020658353,1.027912453635809,0.3135037315703877,0.4848323371438245,0.7192144015762155,0.5738777398251768,0.08019144300461314,0.3370752131935053,724.0659340659341,783.2967032967033,794.981684981685,745.8241758241759,832.4542124542124,-0.176514,0.033997,0.962769,1.846771,1.824341,2.654266,1,1,1,1,1,100.000000
2023-09-12 16:06:01.941,0.7203016800070964,-0.02152456854256809,0.3391937906218068,0.9050407742423737,0.5672534047762682,0.178297959215881,-0.1684314355612235,0.8286268313076941,0.4239126256789302,0.5418593284783358,0.02065413028704873,1.071682965323315,1.141279104951428,1.093316680989917,0.3346435856838243,0.6527863463843853,0.627113767025121,0.7642913900256351,0.1012255397638253,0.3851496486363852,759.92673992674,804.2490842490843,783.2967032967033,761.1355311355312,821.1721611721612,-0.379639,0.131958,0.916626,2.482300,-7.147827,2.250519,1,1,1,1,1,100.000000
2023-09-12 16:06:02.936,0.781829339739028,-0.07701639631491597,0.6924324685700959,1.123896523793239,1.00998588330203,0.3429764524129912,-0.1295519613281686,1.150560596306212,0.6431774667841145,0.5129574217708365,-0.08294833814968733,1.064056203385094,1.111350448746486,1.206853794567862,0.425637269907818,0.8292854537398983,0.7880644650742297,1.006384602263065,0.07147951530035913,0.4779146039411936,728.4981684981685,813.1135531135532,811.5018315018315,695.4578754578755,684.5787545787546,-0.554443,0.100220,0.838562,-8.568420,8.598328,33.899841,1,1,1,1,1,100.000000
2023-09-12 16:06:03.936,0.781829339739028,-0.04973066330839036,0.6924324685700959,1.123896523793239,1.00998588330203,0.3781547166406301,-0.1295519613281686,1.150560596306212,0.6431774667841145,0.5129574217708365,-0.08294833814968733,1.064056203385094,1.111350448746486,1.230813604041121,0.425637269907818,0.8292854537398983,0.7880644650742297,1.029239470633083,0.07147951530035913,0.4779146039411936,692.2344322344322,785.7142857142858,828.8278388278388,718.021978021978,693.8461538461538,-0.384766,0.069275,0.888367,17.510681,-10.953522,-37.040100,1,1,1,1,1,100.000000
2023-09-12 16:06:04.935,0.9414954385161053,-0.04973066330839036,0.5829750086403914,0.9487847221132913,0.6124389977854068,0.3781547166406301,0.06721962296878717,0.4053964699999293,0.813509572053338,0.5129574217708365,0.2053080484261645,0.649449488296254,1.148618234846163,1.230813604041121,0.5683956633538673,0.8353994289529353,0.9054123978130241,1.029239470633083,0.3761862324043302,0.4816152947469958,727.2893772893773,786.5201465201466,811.9047619047619,768.3882783882784,701.0989010989011,-0.314697,0.099060,0.930237,6.392670,-1.293488,-0.687866,1,1,1,1,1,100.000000
2023-09-12 16:06:05.936,0.9591922589568541,0.2826345780752868,0.4204547553615035,1.017099064019523,0.6862128904210175,0.009397590544534061,0.2829954535325598,0.7670401774456918,0.9337805426615615,0.5964420979971632,0.3058025543160867,0.9140917809262817,0.9946674831265685,1.019893337741331,0.4611463901576549,0.6097495911939274,0.8578461235501705,0.7457297572158061,0.1244905238756109,0.3744440443774527,693.8461538461538,841.7216117216118,831.6483516483516,697.8754578754579,708.7545787545788,-0.378235,0.050415,0.932068,-1.487885,-0.672913,-2.796326,1,1,1,1,1,100.000000
2023-09-12 16:06:06.095,,,,,,,,,,,,,,,,,,,,,,,,,,,,,,,,,,,,,,/muse/elements/blink
2023-09-12 16:06:06.095,,,,,,,,,,,,,,,,,,,,,,,,,,,,,,,,,,,,,,/muse/elements/jaw_clench
2023-09-12 16:06:06.431,,,,,,,,,,,,,,,,,,,,,,,,,,,,,,,,,,,,,,/muse/elements/blink
2023-09-12 16:06:06.851,,,,,,,,,,,,,,,,,,,,,,,,,,,,,,,,,,,,,,/muse/elements/blink
2023-09-12 16:06:06.936,0.856461077543354,0.3806650863024038,0.2450580914812701,1.057146522416217,0.7678487490898195,0.1952805718864054,0.340997982258637,0.9504138002881038,0.7737025273688076,0.5108540264860651,0.06823650092397812,0.8221707759975893,0.9722976539454954,0.99250505756559,0.4126254826465651,0.5189302439117044,0.9413889459928492,0.7212166653351556,0.153775320826974,0.4110599209067345,563.2967032967033,679.3406593406594,777.2527472527473,625.7509157509157,759.92673992674,-0.357605,0.035217,0.911560,1.330872,0.971985,7.902985,1,1,1,1,1,100.000000
2023-09-12 16:06:07.138,,,,,,,,,,,,,,,,,,,,,,,,,,,,,,,,,,,,,,/muse/elements/blink
2023-09-12 16:06:07.465,,,,,,,,,,,,,,,,,,,,,,,,,,,,,,,,,,,,,,/muse/elements/blink
2023-09-12 16:06:07.752,,,,,,,,,,,,,,,,,,,,,,,,,,,,,,,,,,,,,,/muse/elements/blink
2023-09-12 16:06:07.939,0.8915165555937782,0.3639464136047079,0.3259789644651042,1.027340401861432,0.7581118938804482,0.2374349445213363,0.3610385542499567,0.781846688411051,0.7715996981442722,0.4631851357351336,0.03184296630831399,0.7140183358409152,0.9794697491168209,0.9637696665725142,0.3862592187762395,0.6089838324531237,1.000348109842217,0.7474409093288368,0.1484187738868461,0.4504796070352704,598.3516483516484,813.1135531135532,821.978021978022,654.3589743589744,710.3663003663004,-0.373169,0.040344,0.937988,0.164490,6.751556,10.714264,1,1,1,1,1,100.000000
2023-09-12 16:06:08.434,,,,,,,,,,,,,,,,,,,,,,,,,,,,,,,,,,,,,,/muse/elements/blink
2023-09-12 16:06:08.784,,,,,,,,,,,,,,,,,,,,,,,,,,,,,,,,,,,,,,/muse/elements/blink
2023-09-12 16:06:08.936,0.8915165555937782,0.3639464136047079,0.3259789644651042,1.027340401861432,0.7581118938804482,0.2374349445213363,0.3610385542499567,0.781846688411051,0.7715996981442722,0.4631851357351336,0.03184296630831399,0.7140183358409152,0.9794697491168209,0.9637696665725142,0.3862592187762395,0.6089838324531237,1.000348109842217,0.7474409093288368,0.1484187738868461,0.4504796070352704,587.0695970695971,801.8315018315019,800.6227106227107,645.8974358974359,696.6666666666667,-0.460938,0.020386,0.868591,3.177643,-3.603821,0.224304,1,2,1,1,2,100.000000
2023-09-12 16:06:09.159,,,,,,,,,,,,,,,,,,,,,,,,,,,,,,,,,,,,,,/muse/elements/blink
2023-09-12 16:06:09.663,,,,,,,,,,,,,,,,,,,,,,,,,,,,,,,,,,,,,,/muse/elements/jaw_clench
2023-09-12 16:06:09.750,,,,,,,,,,,,,,,,,,,,,,,,,,,,,,,,,,,,,,/muse/elements/blink
2023-09-12 16:06:09.936,0.8915165555937782,0.3639464136047079,0.3259789644651042,1.027340401861432,0.7581118938804482,0.2374349445213363,0.3610385542499567,0.781846688411051,0.7715996981442722,0.4631851357351336,0.03184296630831399,0.7140183358409152,0.9794697491168209,0.9637696665725142,0.3862592187762395,0.6089838324531237,1.000348109842217,0.7474409093288368,0.1484187738868461,0.4504796070352704,772.4175824175825,784.5054945054945,784.9084249084249,783.2967032967033,622.1245421245421,-0.299500,0.102295,0.926636,3.932800,-1.338348,0.867310,1,2,1,1,2,100.000000
2023-09-12 16:06:10.936,0.8915165555937782,0.3639464136047079,0.3259789644651042,1.027340401861432,0.7581118938804482,0.2374349445213363,0.3610385542499567,0.781846688411051,0.7715996981442722,0.4631851357351336,0.03184296630831399,0.7140183358409152,0.9794697491168209,0.9637696665725142,0.3862592187762395,0.6089838324531237,1.000348109842217,0.7474409093288368,0.1484187738868461,0.4504796070352704,726.8864468864469,794.981684981685,802.6373626373627,704.3223443223443,651.5384615384615,-0.554871,0.062622,0.837280,3.013153,23.865967,-4.777679,1,2,1,1,2,100.000000
2023-09-12 16:06:11.938,1.089606745700251,0.3639464136047079,0.7357832830440828,1.027340401861432,0.985078109946502,0.2374349445213363,0.304582713465939,0.781846688411051,1.110333896948983,0.4631851357351336,0.3487321910619935,0.7140183358409152,1.203661391438817,0.9637696665725142,0.8563555489332756,0.6089838324531237,1.057347084188892,0.7474409093288368,0.4207740493163613,0.4504796070352704,724.8717948717949,818.7545787545788,789.3406593406594,750.6593406593407,612.4542124542124,-0.488464,0.072144,0.856445,0.276642,-10.482483,-1.345825,1,1,1,1,1,100.000000
2023-09-12 16:06:12.936,1.273671186172046,0.3639464136047079,0.6628535249548577,1.027340401861432,0.8794719223163936,0.2374349445213363,0.3348353001794703,0.781846688411051,0.7281401889622504,0.4631851357351336,0.3003059429094102,0.7140183358409152,1.060692859608768,0.9637696665725142,0.6892470494722075,0.6089838324531237,0.8832957624354268,0.7474409093288368,0.460758168199175,0.4504796070352704,738.974358974359,768.3882783882784,813.5164835164835,754.2857142857143,733.7362637362637,-0.463501,-0.012085,0.844421,2.444916,-4.104767,-4.239349,1,1,1,1,1,100.000000
2023-09-12 16:06:13.936,1.235408575984851,0.3639464136047079,0.6350501961943934,0.7124947977633835,0.936352376078408,0.2374349445213363,-0.0144136333520523,0.7435819932513482,0.8372809241727651,0.4631851357351336,-0.02633754974792035,0.8322209041899264,0.9942967210544015,0.9637696665725142,0.7626884689327861,0.7112718027141656,0.7415763723581926,0.7474409093288368,0.4314943835999884,0.4302738812030129,790.952380952381,759.92673992674,803.4432234432235,779.6703296703297,598.7545787545788,-0.383301,0.013428,0.912964,-1.001892,-0.904694,-5.674896,1,1,1,1,1,100.000000
2023-09-12 16:06:13.940,,,,,,,,,,,,,,,,,,,,,,,,,,,,,,,,,,,,,,/muse/elements/blink
2023-09-12 16:06:14.940,1.088913834216745,0.3639464136047079,0.6961368980779732,0.3915678386206792,0.8326249935291592,0.2374349445213363,0.3367051012186301,0.7306346531248615,0.7761276016814421,0.4631851357351336,0.1827122286011159,0.8207625993350576,0.8415941536404897,0.9637696665725142,0.8045499511060334,0.7174031738187322,0.6028327880463895,0.7474409093288368,0.4625941618772476,0.3261433176630644,698.2783882783883,773.6263736263736,795.3846153846154,732.5274725274726,672.4908424908425,-0.487854,0.072876,0.846130,4.157104,-0.912170,-4.792633,1,1,1,1,1,100.000000
2023-09-12 16:06:15.935,1.165241173769004,0.2786768793845117,0.3327268149077227,0.3915678386206792,0.4511738371213444,-0.3032447820115499,-0.07215394004197916,0.7306346531248615,0.6664136391462386,0.6228367737451338,-0.02656455856826903,0.8207625993350576,1.016941937326742,1.03396455473581,0.8091739660964764,0.7174031738187322,1.093316414562991,1.01436487653202,0.3413466550281563,0.3261433176630644,719.2307692307693,760.3296703296703,796.5934065934066,742.1978021978023,721.6483516483516,-0.336304,0.054688,0.942017,7.798309,-37.810211,-25.847321,1,1,1,1,1,100.000000
2023-09-12 16:06:16.936,1.335909994246262,0.3913993008881064,0.7607069717070052,0.9939624589126016,0.9756117527996647,0.1690514369103636,0.3701833908060351,0.8814371527535289,1.054672364310218,0.9214244837571985,0.2346199199556288,0.8510055694685678,1.090008968111958,1.122313796144239,0.489370780278029,0.6291121528669602,0.9995542861410499,0.9288497990338929,0.2067031716473899,0.4799790255061299,782.893772893773,790.1465201465202,788.9377289377289,732.5274725274726,682.1611721611722,-0.346497,0.017639,0.915710,9.069366,29.167023,7.147827,1,1,1,1,1,100.000000
2023-09-12 16:06:17.205,,,,,,,,,,,,,,,,,,,,,,,,,,,,,,,,,,,,,,/muse/elements/jaw_clench
2023-09-12 16:06:17.582,,,,,,,,,,,,,,,,,,,,,,,,,,,,,,,,,,,,,,/muse/elements/blink
2023-09-12 16:06:17.946,1.200173515386883,0.2925199170102376,0.7116323262557789,1.176038543037476,1.036168937171951,0.4006098506081763,0.09517868262112855,1.022278970424222,0.8948036637210767,0.9063811164777594,0.1156395458402475,0.8468312773777041,1.023904345353973,0.9634575318657679,0.4372145243343135,0.6682918760647435,0.7057202316586464,0.7710872222725442,-0.1497221050623012,0.5879432619087127,716.007326007326,781.6849816849817,747.4358974358975,709.5604395604396,733.3333333333334,-0.553223,0.065430,0.835510,6.908569,0.366364,10.362854,1,1,1,1,1,100.000000
2023-09-12 16:06:18.881,,,,,,,,,,,,,,,,,,,,,,,,,,,,,,,,,,,,,,/muse/elements/blink
2023-09-12 16:06:18.936,1.200173515386883,0.2925199170102376,0.6859002206476917,1.176038543037476,1.036168937171951,0.4006098506081763,0.03732160730834811,1.022278970424222,0.8948036637210767,0.9063811164777594,0.09088325358759632,0.8468312773777041,1.023904345353973,0.9634575318657679,0.4209572618235504,0.6682918760647435,0.7057202316586464,0.7710872222725442,-0.2740710106215538,0.5879432619087127,796.996336996337,772.8205128205128,808.6813186813187,776.0439560439561,812.3076923076924,-0.457031,0.072327,0.884216,7.282410,-4.426270,-0.149536,1,1,1,1,1,100.000000
2023-09-12 16:06:19.652,,,,,,,,,,,,,,,,,,,,,,,,,,,,,,,,,,,,,,/muse/elements/blink
2023-09-12 16:06:19.942,1.200173515386883,0.2925199170102376,0.6859002206476917,1.176038543037476,1.036168937171951,0.4006098506081763,0.03732160730834811,1.022278970424222,0.8948036637210767,0.9063811164777594,0.09088325358759632,0.8468312773777041,1.023904345353973,0.9634575318657679,0.4209572618235504,0.6682918760647435,0.7057202316586464,0.7710872222725442,-0.2740710106215538,0.5879432619087127,737.7655677655678,810.2930402930403,778.8644688644689,725.6776556776557,640.6593406593407,-0.427612,0.087830,0.889587,-0.097198,6.788940,2.100983,1,2,1,1,2,100.000000
2023-09-12 16:06:20.265,,,,,,,,,,,,,,,,,,,,,,,,,,,,,,,,,,,,,,/muse/elements/jaw_clench
2023-09-12 16:06:20.442,,,,,,,,,,,,,,,,,,,,,,,,,,,,,,,,,,,,,,/muse/elements/blink
2023-09-12 16:06:20.936,1.200173515386883,0.2925199170102376,0.6859002206476917,1.176038543037476,1.036168937171951,0.4006098506081763,0.03732160730834811,1.022278970424222,0.8948036637210767,0.9063811164777594,0.09088325358759632,0.8468312773777041,1.023904345353973,0.9634575318657679,0.4209572618235504,0.6682918760647435,0.7057202316586464,0.7710872222725442,-0.2740710106215538,0.5879432619087127,500.4395604395605,773.6263736263736,813.5164835164835,557.6556776556777,574.1758241758242,-0.304382,0.084045,0.947327,2.953339,-17.869568,-1.816864,1,2,1,1,2,100.000000
2023-09-12 16:06:21.580,,,,,,,,,,,,,,,,,,,,,,,,,,,,,,,,,,,,,,/muse/elements/blink
2023-09-12 16:06:21.935,1.200173515386883,0.2925199170102376,0.6859002206476917,1.176038543037476,1.036168937171951,0.4006098506081763,0.03732160730834811,1.022278970424222,0.8948036637210767,0.9063811164777594,0.09088325358759632,0.8468312773777041,1.023904345353973,0.9634575318657679,0.4209572618235504,0.6682918760647435,0.7057202316586464,0.7710872222725442,-0.2740710106215538,0.5879432619087127,668.4615384615385,761.941391941392,834.4688644688645,651.5384615384615,608.4249084249085,-0.305420,0.083496,0.947754,2.579498,-3.671112,-2.915955,1,2,1,1,2,100.000000
2023-09-12 16:06:22.887,,,,,,,,,,,,,,,,,,,,,,,,,,,,,,,,,,,,,,/muse/elements/blink
2023-09-12 16:06:22.939,1.200173515386883,0.2925199170102376,0.6859002206476917,1.176038543037476,1.036168937171951,0.4006098506081763,0.03732160730834811,1.022278970424222,0.8948036637210767,0.9063811164777594,0.09088325358759632,0.8468312773777041,1.023904345353973,0.9634575318657679,0.4209572618235504,0.6682918760647435,0.7057202316586464,0.7710872222725442,-0.2740710106215538,0.5879432619087127,567.3260073260074,800.6227106227107,807.0695970695971,648.3150183150183,642.2710622710623,-0.011719,0.147827,0.987610,1.510315,-9.607697,-3.035583,1,2,4,1,2,100.000000
2023-09-12 16:06:23.175,,,,,,,,,,,,,,,,,,,,,,,,,,,,,,,,,,,,,,/muse/elements/blink
2023-09-12 16:06:23.396,,,,,,,,,,,,,,,,,,,,,,,,,,,,,,,,,,,,,,/muse/elements/blink
2023-09-12 16:06:23.774,,,,,,,,,,,,,,,,,,,,,,,,,,,,,,,,,,,,,,/muse/elements/jaw_clench
2023-09-12 16:06:23.937,1.200173515386883,0.2925199170102376,0.7260527108708619,1.176038543037476,1.036168937171951,0.4006098506081763,0.4352700067620238,1.022278970424222,0.8948036637210767,0.9063811164777594,0.614528005330239,0.8468312773777041,1.023904345353973,0.9634575318657679,0.5368371372667309,0.6682918760647435,0.7057202316586464,0.7710872222725442,0.5046314232158096,0.5879432619087127,721.6483516483516,765.5677655677656,801.4285714285714,754.2857142857143,830.0366300366301,-0.041443,0.037781,0.990845,2.385101,0.463562,-1.517792,1,2,1,1,2,100.000000
2023-09-12 16:06:24.719,,,,,,,,,,,,,,,,,,,,,,,,,,,,,,,,,,,,,,/muse/elements/blink
2023-09-12 16:06:24.936,1.200173515386883,0.2925199170102376,0.5774470947742069,1.176038543037476,1.036168937171951,0.4006098506081763,0.2609243178986,1.022278970424222,0.8948036637210767,0.9063811164777594,0.6552021142744321,0.8468312773777041,1.023904345353973,0.9634575318657679,0.6110284637291248,0.6682918760647435,0.7057202316586464,0.7710872222725442,0.5134623338753624,0.5879432619087127,677.3260073260074,806.2637362637363,778.0586080586081,679.3406593406594,608.4249084249085,-0.466248,0.073181,0.868774,4.164581,8.112335,-4.134674,1,2,1,1,2,100.000000
2023-09-12 16:06:25.226,,,,,,,,,,,,,,,,,,,,,,,,,,,,,,,,,,,,,,/muse/elements/blink
2023-09-12 16:06:25.428,,,,,,,,,,,,,,,,,,,,,,,,,,,,,,,,,,,,,,/muse/elements/blink
2023-09-12 16:06:25.922,,,,,,,,,,,,,,,,,,,,,,,,,,,,,,,,,,,,,,/muse/elements/blink
2023-09-12 16:06:25.936,1.200173515386883,0.2925199170102376,0.6533112858937402,1.176038543037476,1.036168937171951,0.4006098506081763,0.228693097454337,1.022278970424222,0.8948036637210767,0.9063811164777594,0.4488425696446928,0.8468312773777041,1.023904345353973,0.9634575318657679,0.6851749356620125,0.6682918760647435,0.7057202316586464,0.7710872222725442,0.630896383162847,0.5879432619087127,707.948717948718,848.1684981684982,783.2967032967033,746.6300366300367,624.1391941391942,-0.541626,0.086487,0.828247,0.859833,13.368530,4.770203,1,2,1,1,2,100.000000
2023-09-12 16:06:26.210,,,,,,,,,,,,,,,,,,,,,,,,,,,,,,,,,,,,,,/muse/elements/jaw_clench
2023-09-12 16:06:26.431,,,,,,,,,,,,,,,,,,,,,,,,,,,,,,,,,,,,,,/muse/elements/blink
2023-09-12 16:06:26.722,,,,,,,,,,,,,,,,,,,,,,,,,,,,,,,,,,,,,,/muse/elements/blink
2023-09-12 16:06:26.936,1.200173515386883,0.2925199170102376,0.6230651351227232,1.176038543037476,1.036168937171951,0.4006098506081763,-0.07436757307521462,1.022278970424222,0.8948036637210767,0.9063811164777594,0.1272289665088117,0.8468312773777041,1.023904345353973,0.9634575318657679,0.5651384410786247,0.6682918760647435,0.7057202316586464,0.7710872222725442,0.6026704946735049,0.5879432619087127,411.3919413919414,792.1611721611722,830.4395604395604,614.8717948717949,655.9706959706959,-0.436890,0.088013,0.880554,-0.134583,-17.204132,-0.583191,1,2,1,1,2,100.000000
2023-09-12 16:06:26.984,,,,,,,,,,,,,,,,,,,,,,,,,,,,,,,,,,,,,,/muse/elements/blink
2023-09-12 16:06:27.339,,,,,,,,,,,,,,,,,,,,,,,,,,,,,,,,,,,,,,/muse/elements/blink
2023-09-12 16:06:27.936,1.200173515386883,0.2925199170102376,0.6230651351227232,1.176038543037476,1.036168937171951,0.4006098506081763,-0.07436757307521462,1.022278970424222,0.8948036637210767,0.9063811164777594,0.1272289665088117,0.8468312773777041,1.023904345353973,0.9634575318657679,0.5651384410786247,0.6682918760647435,0.7057202316586464,0.7710872222725442,0.6026704946735049,0.5879432619087127,732.5274725274726,876.3736263736264,883.6263736263736,782.893772893773,625.3479853479854,-0.408691,0.085693,0.905640,8.456268,1.360779,-19.282684,1,2,1,1,2,100.000000
2023-09-12 16:06:28.936,1.200173515386883,0.2925199170102376,0.6230651351227232,1.176038543037476,1.036168937171951,0.4006098506081763,-0.07436757307521462,1.022278970424222,0.8948036637210767,0.9063811164777594,0.1272289665088117,0.8468312773777041,1.023904345353973,0.9634575318657679,0.5651384410786247,0.6682918760647435,0.7057202316586464,0.7710872222725442,0.6026704946735049,0.5879432619087127,656.7765567765568,800.6227106227107,796.1904761904763,718.4249084249085,570.5494505494505,-0.401001,0.044617,0.905640,1.943970,-7.521667,-7.357178,1,2,1,1,2,100.000000
2023-09-12 16:06:29.400,,,,,,,,,,,,,,,,,,,,,,,,,,,,,,,,,,,,,,/muse/elements/blink
2023-09-12 16:06:29.935,1.200173515386883,0.2925199170102376,0.6230651351227232,1.176038543037476,1.036168937171951,0.4006098506081763,-0.07436757307521462,1.022278970424222,0.8948036637210767,0.9063811164777594,0.1272289665088117,0.8468312773777041,1.023904345353973,0.9634575318657679,0.5651384410786247,0.6682918760647435,0.7057202316586464,0.7710872222725442,0.6026704946735049,0.5879432619087127,695.0549450549451,813.1135531135532,800.2197802197802,727.2893772893773,655.9706959706959,-0.570679,0.061096,0.810242,4.351501,4.104767,-1.555176,1,2,1,1,2,100.000000
2023-09-12 16:06:30.942,1.200173515386883,0.2925199170102376,0.6230651351227232,1.176038543037476,1.036168937171951,0.4006098506081763,-0.07436757307521462,1.022278970424222,0.8948036637210767,0.9063811164777594,0.1272289665088117,0.8468312773777041,1.023904345353973,0.9634575318657679,0.5651384410786247,0.6682918760647435,0.7057202316586464,0.7710872222725442,0.6026704946735049,0.5879432619087127,778.8644688644689,710.7692307692308,797.8021978021978,787.7289377289378,891.2820512820513,-0.535828,0.065002,0.844727,2.482300,-7.529144,-1.256104,1,2,1,1,2,100.000000
2023-09-12 16:06:31.936,1.200173515386883,0.2925199170102376,-0.04473796627341458,0.6057945889218536,1.036168937171951,0.4006098506081763,-0.008412074695163104,0.3430931110156043,0.8948036637210767,0.9063811164777594,0.3230435001324496,0.5165285191170957,1.023904345353973,0.9634575318657679,0.6436510221699845,0.8527310729554483,0.7057202316586464,0.7710872222725442,0.4650178067194043,0.29325381179267,769.1941391941392,705.5311355311355,796.996336996337,774.4322344322345,757.1062271062272,-0.471252,0.057434,0.872681,0.740204,-9.772186,2.168274,1,1,1,1,1,100.000000
2023-09-12 16:06:32.205,,,,,,,,,,,,,,,,,,,,,,,,,,,,,,,,,,,,,,/muse/elements/jaw_clench
2023-09-12 16:06:32.296,,,,,,,,,,,,,,,,,,,,,,,,,,,,,,,,,,,,,,/muse/elements/blink
2023-09-12 16:06:32.544,,,,,,,,,,,,,,,,,,,,,,,,,,,,,,,,,,,,,,/muse/elements/blink
2023-09-12 16:06:32.936,1.200173515386883,0.2925199170102376,-0.3041152807005141,0.5272033969546379,1.036168937171951,0.4006098506081763,-0.1457854264378668,0.3586120464125299,0.8948036637210767,0.9063811164777594,0.2083696274756555,0.1265478689743095,1.023904345353973,0.9634575318657679,0.6406978257557004,0.8016928920336408,0.7057202316586464,0.7710872222725442,0.3238500680451737,0.2112486362708248,655.5677655677656,823.5897435897436,729.3040293040293,713.992673992674,899.7435897435897,-0.634705,0.045837,0.754456,0.874786,4.964600,-10.624542,1,1,4,1,1,100.000000
2023-09-12 16:06:33.936,1.200173515386883,0.2925199170102376,-0.3064222508143026,0.5500371150550925,1.036168937171951,0.4006098506081763,-0.1170737728545727,0.3309241502730406,0.8948036637210767,0.9063811164777594,0.1801253549084375,0.1265478689743095,1.023904345353973,0.9634575318657679,0.6499423592140554,0.7709648030654309,0.7057202316586464,0.7710872222725442,0.3464612451666944,0.2160089598540667,677.7289377289377,789.7435897435897,778.4615384615385,716.8131868131868,708.7545787545788,-0.423035,0.047607,0.887085,3.005676,-8.194580,-0.306549,1,1,1,1,1,100.000000
2023-09-12 16:06:34.936,1.200173515386883,0.2925199170102376,-0.3064222508143026,0.5500371150550925,1.036168937171951,0.4006098506081763,-0.1170737728545727,0.3309241502730406,0.8948036637210767,0.9063811164777594,0.1801253549084375,0.1265478689743095,1.023904345353973,0.9634575318657679,0.6499423592140554,0.7709648030654309,0.7057202316586464,0.7710872222725442,0.3464612451666944,0.2160089598540667,733.7362637362637,750.2564102564103,809.0842490842491,732.5274725274726,584.6520146520147,-0.338867,0.096619,0.940979,4.620667,-3.910370,-2.684174,1,2,1,1,2,100.000000
2023-09-12 16:06:35.935,1.168351335547048,0.2925199170102376,0.5621960037070961,0.2386147174700329,0.6429051372789212,0.4006098506081763,-0.04473493232122631,-0.08297955022696667,1.026329382700082,0.9063811164777594,0.08130130052602273,0.686704306310102,1.264308830400424,0.9634575318657679,0.4596433874211073,0.6740990393532088,1.020807188132221,0.7710872222725442,0.3076478953735121,0.43889997971455,756.7032967032967,767.1794871794872,800.2197802197802,780.8791208791209,709.5604395604396,-0.258179,0.090942,0.946411,2.063599,-18.123779,7.783356,1,1,1,1,1,100.000000
2023-09-12 16:06:36.936,0.7778105363590057,0.2925199170102376,0.671931651195165,0.5475022978683749,0.2216778514691482,0.4006098506081763,0.1068207576250397,0.241336707159564,0.5945637749195946,0.9063811164777594,0.2498129289811643,0.7029757802216163,1.281047114699754,0.9634575318657679,0.4067265964803389,0.6162881800385454,0.6828882613765592,0.7710872222725442,0.2607097114381773,0.341086099118009,730.9157509157509,749.047619047619,794.5787545787546,709.5604395604396,832.8571428571429,-0.386963,0.078308,0.907227,3.715973,10.871277,-7.805786,1,1,1,1,1,100.000000
2023-09-12 16:06:37.936,0.7946431141505436,0.2925199170102376,0.65630910944941,0.7001988616672952,0.5446778232430576,0.4006098506081763,0.1431739867538901,0.3406268423196282,0.9187044089837659,0.9063811164777594,0.4169844276474783,0.3938546415960708,1.144271964394114,0.9634575318657679,0.4589844919536571,0.5166781534422821,0.6610698377051093,0.7710872222725442,0.3321788989930861,0.2899129905162231,700.6959706959707,784.5054945054945,784.1025641025641,722.0512820512821,681.3553113553114,-0.411072,0.053101,0.891663,3.970184,-0.149536,-1.614990,1,1,1,1,1,100.000000
2023-09-12 16:06:38.938,0.6682383208865631,0.2925199170102376,0.462141969375564,0.5698776686019816,0.583714706544297,0.4006098506081763,0.01549217619168111,0.6687693650867755,0.9423484693379078,0.9063811164777594,0.3446123711094568,0.565532344431301,1.058566198282801,0.9634575318657679,0.749043574430533,0.6845799199560239,0.4605446021468966,0.7710872222725442,0.4507828667282267,0.3170989536978799,714.3956043956044,800.2197802197802,803.4432234432235,754.6886446886447,932.7838827838829,-0.347412,0.077454,0.923767,0.530853,-0.949554,-0.388794,1,1,1,1,1,100.000000
2023-09-12 16:06:39.856,,,,,,,,,,,,,,,,,,,,,,,,,,,,,,,,,,,,,,/muse/elements/blink
2023-09-12 16:06:39.936,1.181405714462139,0.6197483996106157,0.4821993995281315,0.4396903267227124,1.251201503401336,0.1114376686924155,0.06944022333122556,0.6164055289947262,1.165338410401699,0.4162558515375382,0.4201357434758959,0.4194715464210023,1.037589873399268,1.283150861521632,0.8562695615425803,0.5777477557779179,0.6906790870570618,0.9133924089671817,0.4376786437764001,0.3395703205149539,715.6043956043957,788.5347985347986,777.2527472527473,761.5384615384615,561.2820512820513,-0.122986,0.122498,0.967346,4.216919,-22.699585,-11.790924,1,1,1,1,1,100.000000
2023-09-12 16:06:40.936,1.239715913213838,0.68745046426437,0.9249978560864083,0.5333020405325589,1.216872136447679,0.09118299518099988,0.5425856623590029,0.3053639871084939,1.141943032601838,0.3790559128567403,0.6136043881588432,0.06158277100842632,1.299364093778978,1.217726543736381,0.831635118482291,0.4722221703583914,0.7304977592057633,0.8807293212023491,0.4596230671160472,0.390158021302188,769.5970695970697,774.4322344322345,784.1025641025641,776.0439560439561,681.3553113553114,-0.301208,-0.010742,0.929810,-27.372589,15.843353,80.921478,1,1,1,1,1,100.000000
2023-09-12 16:06:41.942,1.203127805220384,0.68745046426437,1.00022572573139,0.5333020405325589,1.113452327136122,0.09118299518099988,0.6057306853968775,0.3053639871084939,1.136474008324402,0.3790559128567403,0.4880400733455244,0.06158277100842632,1.310730122983394,1.217726543736381,0.657151948371319,0.4722221703583914,0.7718319743109182,0.8807293212023491,0.4457245320292408,0.390158021302188,684.1758241758242,780.4761904761905,807.4725274725275,724.0659340659341,882.014652014652,-0.394287,0.060120,0.911438,0.762634,9.331055,0.770111,1,1,1,1,1,100.000000
2023-09-12 16:06:42.937,1.127052619428313,0.68745046426437,0.5946618977871801,0.5333020405325589,0.5444879735792293,0.09118299518099988,0.03663393554138713,0.3053639871084939,0.8388084599405498,0.3790559128567403,0.1771527492749217,0.06158277100842632,1.008909136312658,1.217726543736381,0.6251007608449902,0.4722221703583914,0.8626796983423599,0.8807293212023491,0.3378482450177663,0.390158021302188,647.5091575091575,828.4249084249085,786.5201465201466,688.6080586080586,749.047619047619,-0.420654,0.061096,0.891113,1.233673,2.437439,-1.368256,1,1,1,1,1,100.000000
2023-09-12 16:06:43.184,,,,,,,,,,,,,,,,,,,,,,,,,,,,,,,,,,,,,,/muse/elements/blink
2023-09-12 16:06:43.184,,,,,,,,,,,,,,,,,,,,,,,,,,,,,,,,,,,,,,/muse/elements/jaw_clench
2023-09-12 16:06:43.607,,,,,,,,,,,,,,,,,,,,,,,,,,,,,,,,,,,,,,/muse/elements/blink
2023-09-12 16:06:43.935,1.156936904017468,0.68745046426437,0.5031125680781977,0.5333020405325589,0.5444478944135777,0.09118299518099988,0.03464473379303636,0.3053639871084939,0.8212376593113143,0.3790559128567403,0.03049231763482814,0.06158277100842632,0.9915409051369519,1.217726543736381,0.5860011938959784,0.4722221703583914,0.9196671431711299,0.8807293212023491,0.1738228289308583,0.390158021302188,601.978021978022,733.7362637362637,838.0952380952381,630.5860805860806,643.0769230769231,-0.549561,0.069397,0.832458,3.558960,-5.712280,-1.831818,1,1,4,1,1,100.000000
2023-09-12 16:06:44.201,,,,,,,,,,,,,,,,,,,,,,,,,,,,,,,,,,,,,,/muse/elements/blink
2023-09-12 16:06:44.935,1.156936904017468,0.68745046426437,0.5717350641254941,0.5333020405325589,0.5444478944135777,0.09118299518099988,0.07773446230892125,0.3053639871084939,0.8212376593113143,0.3790559128567403,0.01724785123225618,0.06158277100842632,0.9915409051369519,1.217726543736381,0.5681718211529646,0.4722221703583914,0.9196671431711299,0.8807293212023491,0.1786874075664067,0.390158021302188,701.9047619047619,793.7728937728938,797.8021978021978,731.7216117216118,707.948717948718,-0.443848,0.073303,0.885864,7.215118,0.635529,-7.207642,1,1,4,1,1,100.000000
2023-09-12 16:06:45.936,1.156936904017468,0.68745046426437,0.938065833948914,0.6808769925422065,0.5444478944135777,0.09118299518099988,0.371344979482832,0.5509353956964259,0.8212376593113143,0.3790559128567403,0.3983830463677289,0.8583925552489534,0.9915409051369519,1.217726543736381,0.5224972744135629,0.6965441420679739,0.9196671431711299,0.8807293212023491,0.5361848575089537,0.6742088770991036,750.2564102564103,771.6117216117216,810.2930402930403,776.8498168498169,732.5274725274726,-0.363525,0.060608,0.917480,0.157013,-25.316467,-6.534729,1,1,1,1,1,100.000000
2023-09-12 16:06:46.473,,,,,,,,,,,,,,,,,,,,,,,,,,,,,,,,,,,,,,/muse/elements/blink
2023-09-12 16:06:46.937,0.7592900269100794,0.68745046426437,0.938065833948914,0.7233995840525969,0.6650972570084359,0.09118299518099988,0.371344979482832,0.5415925914287131,0.7710340546243792,0.3790559128567403,0.3983830463677289,0.8473884867666673,1.171535494710749,1.217726543736381,0.5224972744135629,0.6672140753384226,0.8108022262127825,0.8807293212023491,0.5361848575089537,0.701442102313243,682.1611721611722,821.1721611721612,754.6886446886447,710.7692307692308,718.8278388278388,-0.598328,0.122009,0.799011,6.205750,-27.454834,-7.985229,1,1,1,1,1,100.000000
2023-09-12 16:06:47.534,,,,,,,,,,,,,,,,,,,,,,,,,,,,,,,,,,,,,,/muse/elements/blink
2023-09-12 16:06:47.935,0.7592900269100794,0.68745046426437,0.938065833948914,0.7233995840525969,0.6650972570084359,0.09118299518099988,0.371344979482832,0.5415925914287131,0.7710340546243792,0.3790559128567403,0.3983830463677289,0.8473884867666673,1.171535494710749,1.217726543736381,0.5224972744135629,0.6672140753384226,0.8108022262127825,0.8807293212023491,0.5361848575089537,0.701442102313243,654.3589743589744,777.2527472527473,812.3076923076924,705.5311355311355,641.4652014652015,-0.349854,0.033325,0.925964,1.061707,-3.745880,-1.839294,1,1,1,1,1,100.000000
2023-09-12 16:06:48.461,,,,,,,,,,,,,,,,,,,,,,,,,,,,,,,,,,,,,,/muse/elements/blink
2023-09-12 16:06:48.748,,,,,,,,,,,,,,,,,,,,,,,,,,,,,,,,,,,,,,/muse/elements/blink
2023-09-12 16:06:48.748,,,,,,,,,,,,,,,,,,,,,,,,,,,,,,,,,,,,,,/muse/elements/jaw_clench
2023-09-12 16:06:48.935,0.7592900269100794,0.68745046426437,0.938065833948914,0.7233995840525969,0.6650972570084359,0.09118299518099988,0.371344979482832,0.5415925914287131,0.7710340546243792,0.3790559128567403,0.3983830463677289,0.8473884867666673,1.171535494710749,1.217726543736381,0.5224972744135629,0.6672140753384226,0.8108022262127825,0.8807293212023491,0.5361848575089537,0.701442102313243,767.985347985348,660.4029304029305,853.8095238095239,765.9706959706959,697.4725274725275,-0.447510,0.085510,0.870117,3.484192,-5.405731,1.143951,1,2,1,1,2,100.000000
2023-09-12 16:06:49.779,,,,,,,,,,,,,,,,,,,,,,,,,,,,,,,,,,,,,,/muse/elements/blink
2023-09-12 16:06:49.937,0.7592900269100794,0.68745046426437,0.938065833948914,0.7233995840525969,0.6650972570084359,0.09118299518099988,0.371344979482832,0.5415925914287131,0.7710340546243792,0.3790559128567403,0.3983830463677289,0.8473884867666673,1.171535494710749,1.217726543736381,0.5224972744135629,0.6672140753384226,0.8108022262127825,0.8807293212023491,0.5361848575089537,0.701442102313243,734.5421245421246,772.4175824175825,799.4139194139194,743.8095238095239,579.4139194139194,-0.534851,0.070740,0.823242,-0.687866,10.123596,4.523468,1,2,1,1,2,100.000000
2023-09-12 16:06:50.935,0.7592900269100794,0.68745046426437,0.938065833948914,0.7233995840525969,0.6650972570084359,0.09118299518099988,0.371344979482832,0.5415925914287131,0.7710340546243792,0.3790559128567403,0.3983830463677289,0.8473884867666673,1.171535494710749,1.217726543736381,0.5224972744135629,0.6672140753384226,0.8108022262127825,0.8807293212023491,0.5361848575089537,0.701442102313243,689.8168498168499,776.8498168498169,770,714.7985347985348,776.0439560439561,-0.539917,0.065979,0.826050,26.176300,0.463562,-37.787781,1,2,1,1,2,100.000000
2023-09-12 16:06:51.935,0.7592900269100794,0.68745046426437,0.9971450793517305,0.7233995840525969,0.6650972570084359,0.09118299518099988,1.007034508066703,0.5415925914287131,0.7710340546243792,0.3790559128567403,0.4542175452210543,0.8473884867666673,1.171535494710749,1.217726543736381,0.6391971498673399,0.6672140753384226,0.8108022262127825,0.8807293212023491,0.2068445049911837,0.701442102313243,730.1098901098901,789.7435897435897,767.1794871794872,747.4358974358975,647.5091575091575,-0.553406,0.059204,0.838440,1.801910,-2.743988,-5.136566,1,2,1,1,2,100.000000
2023-09-12 16:06:52.936,0.395271301997652,0.68745046426437,1.072084270881585,0.4654977536470182,0.6100560658670983,0.09118299518099988,0.8336646305636731,0.607682244865215,0.7861396605173074,0.3790559128567403,0.5883505955525081,0.8943141494313022,1.271051955780506,1.217726543736381,0.6328156320086975,0.4009143152251811,0.7921935060143735,0.8807293212023491,0.2337416151078096,0.04187151720861172,707.1428571428571,746.2271062271062,801.8315018315019,739.3772893772893,562.893772893773,-0.514648,0.029114,0.836853,1.420593,-4.418793,1.570129,1,1,1,1,1,100.000000
2023-09-12 16:06:53.935,0.721132293115067,0.68745046426437,0.9328151206953705,0.8279155749557737,0.7059515663875254,0.09118299518099988,0.421016818260411,0.6360247676931805,0.8866146535912001,0.3790559128567403,0.6171201507628736,0.956484628592982,1.04360533439894,1.217726543736381,0.4470800253452189,0.444043001416262,0.9100862268008811,0.8807293212023491,0.2246401623274308,0.1685810219512014,719.6336996336996,773.2234432234433,786.9230769230769,751.8681318681319,776.4468864468864,-0.376892,0.044861,0.897339,5.839386,-5.091705,-6.130981,1,1,1,1,1,100.000000
2023-09-12 16:06:54.935,0.7742582794005297,0.68745046426437,0.671463155883707,0.9168119495063385,0.575040089382105,0.09118299518099988,0.3916087397180962,0.512823655930998,0.84910360295465,0.3790559128567403,0.1020950730063015,0.7489537975707116,0.8830431198498149,1.217726543736381,0.391700580790029,0.5436506465463473,0.7456328014234526,0.8807293212023491,0.2581503176383414,0.302429030192823,678.1318681318681,764.3589743589744,792.5641025641025,714.7985347985348,652.3443223443223,-0.352417,0.073669,0.910461,3.895416,-9.465637,-3.065491,1,1,1,1,1,100.000000
2023-09-12 16:06:55.935,0.3275302373571993,0.68745046426437,0.6025138272412539,0.5729870148963574,0.5649995872346785,0.09118299518099988,0.7292495146437694,0.5359584811857392,0.3813680406668537,0.3790559128567403,0.2799031019556544,0.6109377489991952,0.9673604162066495,1.217726543736381,0.4581890124626732,0.5659073130414131,0.6429734346044911,0.8807293212023491,0.1378537930039987,0.2645631055081329,774.8351648351648,778.0586080586081,809.4871794871796,787.7289377289378,695.0549450549451,-0.073547,0.084900,0.979980,5.757141,-13.032074,2.093506,1,1,1,1,1,100.000000
2023-09-12 16:06:56.935,1.334523021274216,0.3681032031015834,0.8769968669164907,1.192227356080281,1.052340930455171,0.4241716144159852,0.9700803502980604,0.5970230448775221,0.9326286037021946,0.7983054321882699,0.6957657817174746,0.6509947152498775,1.106352768835821,0.7124618040791223,0.2438875256033725,0.6197751256473367,0.6116278458190226,0.4168392408712075,-0.05481850594696067,0.5238826733487723,716.8131868131868,774.8351648351648,782.0879120879121,746.6300366300367,967.032967032967,-0.159668,0.053528,0.972412,5.816956,11.289978,2.429962,1,1,1,1,1,100.000000
2023-09-12 16:06:57.935,1.034225156814806,0.1589882545129138,0.7523945724304775,0.9140753064020626,0.6400473395414753,-0.04611103639033561,0.7740580200796834,0.356093922811656,0.7945903521169896,0.4874613535984668,0.6305407080880849,0.7038294712889279,0.9491155874219609,0.6961231940899888,0.2861030181465607,0.5572639178467182,0.5301396724788225,0.598426357688252,-0.09742282806448871,0.3249905809081294,761.5384615384615,807.8754578754579,777.6556776556777,769.1941391941392,680.1465201465202,-0.258423,0.080017,0.940063,4.052429,-2.953339,0.822449,1,1,1,1,1,100.000000
2023-09-12 16:06:58.231,,,,,,,,,,,,,,,,,,,,,,,,,,,,,,,,,,,,,,/muse/elements/blink
2023-09-12 16:06:58.943,0.8356595263058735,0.1784250705715198,0.4742015207896165,0.6791279789519098,0.4704410533989205,-0.1429637555528618,0.03240889888198703,0.2938488305742636,0.7645932194187514,0.2825608785920335,0.4819458347144854,0.6938933017628574,0.881022573357877,0.7044940308566621,0.3000277660315461,0.4856334805333596,0.4632202640327039,0.5266678267061137,0.03648475463483244,0.2208836024268758,733.7362637362637,763.1501831501831,793.7728937728938,728.901098901099,643.0769230769231,-0.409790,0.031982,0.896851,1.607513,-3.132782,2.280426,1,1,1,1,1,100.000000
2023-09-12 16:06:59.936,0.8063770583937629,0.2560967031436759,0.6753338342420961,0.6791279789519098,0.4593090288413941,-0.1518011970797062,-0.02272363860316057,0.2938488305742636,0.7563217539643581,0.2745818979879772,0.468991467439256,0.6938933017628574,0.8591699290735896,0.6076257149582631,0.2459722163214444,0.4856334805333596,0.4331765043570155,0.3668685218876158,0.0864653079317674,0.2208836024268758,748.2417582417582,765.9706959706959,805.8608058608058,756.7032967032967,758.3150183150184,-0.377808,0.068542,0.881836,0.844879,-7.132874,6.041260,1,1,1,1,1,100.000000
2023-09-12 16:07:00.935,0.6544114081425492,0.2560967031436759,0.08236004140979038,0.5506859194080204,0.1390116465655699,-0.1518011970797062,-0.07068287008042579,0.2299029644259634,0.7377270172914858,0.2745818979879772,0.6627012665798783,0.8510064682932107,1.168772135584695,0.6076257149582631,0.5068861901140183,0.5797025231054508,0.6763980323250136,0.3668685218876158,0.422052483652387,0.4387414558091795,782.0879120879121,778.0586080586081,813.919413919414,782.893772893773,714.3956043956044,-0.372070,0.027466,0.930481,1.286011,-8.403931,-2.654266,1,1,1,1,1,75.000000
2023-09-12 16:07:01.947,0.7653267765829644,0.3116657760641989,-0.07288807532300726,0.7314136892686028,0.3717832214840185,0.1423386415644704,-0.04267092563139569,0.2349632802386934,0.7089461206306253,0.4607968927688958,0.575219665638123,0.4675300114888732,0.97449538727824,0.8742075581790767,0.4358294621697778,0.4627595869506291,0.6692816413488657,0.7141462696902132,0.2142980461801358,0.203777797340454,750.6593406593407,815.1282051282052,819.1575091575091,762.3443223443223,605.6043956043957,-0.387512,0.081726,0.907288,2.863617,10.766602,5.256195,1,1,1,1,1,75.000000
2023-09-12 16:07:02.935,0.7013497139276577,0.1561047425297966,-0.08094237402853305,0.9553279394988182,0.4691847421547197,0.1819693506060513,0.0373582278715455,0.6859234746806068,0.1421331231490297,0.4501156036523968,0.2078202162619492,0.8186829666844786,0.9399605098656918,0.8446427574919432,0.4248552206409106,0.865598141214199,0.5995649060871501,0.6771609416681079,0.07913008964016148,0.7804446717643427,779.2673992673992,758.7179487179487,815.1282051282052,772.014652014652,799.8168498168499,-0.537720,0.100586,0.816467,7.633820,6.474915,-24.284668,1,1,1,1,1,75.000000
2023-09-12 16:07:03.935,0.7050739693151027,0.1561047425297966,-0.01417523247714192,1.039729877381344,0.4534962051124371,0.1819693506060513,-0.02187415385271556,0.825094821064872,-0.05278606431373486,0.4501156036523968,0.08797423816456378,0.7516427266348558,0.8936611698041538,0.8446427574919432,0.5523019450594085,0.8205371477808759,0.5741667257387826,0.6771609416681079,0.2147929899700867,0.8647245101302617,834.8717948717949,831.2454212454213,766.7765567765568,828.4249084249085,734.9450549450549,-0.526184,0.066162,0.838013,2.272949,0.403748,-10.594635,1,1,1,1,1,75.000000
2023-09-12 16:07:04.224,,,,,,,,,,,,,,,,,,,,,,,,,,,,,,,,,,,,,,/muse/elements/blink
2023-09-12 16:07:04.312,,,,,,,,,,,,,,,,,,,,,,,,,,,,,,,,,,,,,,/muse/elements/jaw_clench
2023-09-12 16:07:04.942,0.7050739693151027,0.1561047425297966,-0.01417523247714192,1.023310275812242,0.4534962051124371,0.1819693506060513,-0.02187415385271556,0.7422812427447046,-0.05278606431373486,0.4501156036523968,0.08797423816456378,0.7509562582204516,0.8936611698041538,0.8446427574919432,0.5523019450594085,0.589265182135068,0.5741667257387826,0.6771609416681079,0.2147929899700867,0.6672626788236068,741.3919413919414,778.8644688644689,776.0439560439561,757.5091575091575,669.6703296703297,-0.328369,0.069763,0.928162,0.515900,-10.893707,9.473114,1,1,1,1,1,75.000000
2023-09-12 16:07:05.935,0.7050739693151027,0.1561047425297966,-0.01417523247714192,1.023310275812242,0.4534962051124371,0.1819693506060513,-0.02187415385271556,0.7422812427447046,-0.05278606431373486,0.4501156036523968,0.08797423816456378,0.7509562582204516,0.8936611698041538,0.8446427574919432,0.5523019450594085,0.589265182135068,0.5741667257387826,0.6771609416681079,0.2147929899700867,0.6672626788236068,788.5347985347986,775.2380952380953,792.1611721611722,792.1611721611722,877.985347985348,-0.383179,0.098022,0.914062,4.456177,-9.480591,-12.261963,1,2,1,1,2,75.000000
2023-09-12 16:07:06.935,0.7050739693151027,0.1561047425297966,-0.01417523247714192,1.023310275812242,0.4534962051124371,0.1819693506060513,-0.02187415385271556,0.7422812427447046,-0.05278606431373486,0.4501156036523968,0.08797423816456378,0.7509562582204516,0.8936611698041538,0.8446427574919432,0.5523019450594085,0.589265182135068,0.5741667257387826,0.6771609416681079,0.2147929899700867,0.6672626788236068,809.4871794871796,799.8168498168499,795.7875457875458,814.3223443223443,865.4945054945056,-0.330261,0.076111,0.945374,6.975861,-7.372131,1.121521,1,2,1,1,2,75.000000
2023-09-12 16:07:07.640,,,,,,,,,,,,,,,,,,,,,,,,,,,,,,,,,,,,,,/muse/elements/blink
2023-09-12 16:07:07.935,0.9176035562868029,0.1561047425297966,0.3777963199041436,0.6777198286999148,0.4022499797184477,0.1819693506060513,0.2739082020198501,0.3426449045388268,0.8359726660607024,0.4501156036523968,-0.004869883494195927,0.6406516326223513,1.311041905002386,0.8446427574919432,0.485253884240945,0.5829415934457727,0.9416389381394495,0.6771609416681079,0.3953556378066181,0.5182413101482322,868.7179487179487,884.8351648351648,906.996336996337,825.2014652014652,987.5824175824176,-0.454224,0.057983,0.879211,7.798309,1.727142,8.097382,1,1,1,1,1,75.000000
2023-09-12 16:07:07.971,,,,,,,,,,,,,,,,,,,,,,,,,,,,,,,,,,,,,,/muse/elements/jaw_clench
2023-09-12 16:07:08.150,,,,,,,,,,,,,,,,,,,,,,,,,,,,,,,,,,,,,,/muse/elements/jaw_clench
2023-09-12 16:07:08.934,0.8836603521955636,0.1561047425297966,0.3689137532048171,0.6906961397292343,0.3276807216484852,0.1819693506060513,0.2847491337151051,0.3079953830263514,0.812389232198515,0.4501156036523968,-0.1275340437455155,0.589997756699454,1.334436325080673,0.8446427574919432,0.4439872481260772,0.6054898549399922,0.9040750730422,0.6771609416681079,0.3825018983018272,0.3954217576553444,779.6703296703297,796.996336996337,773.6263736263736,788.1318681318681,861.4652014652015,-0.347168,0.155151,0.923584,-0.530853,-9.622650,-7.888031,1,1,1,1,1,75.000000
2023-09-12 16:07:09.940,0.5537494925073202,0.1561047425297966,0.9848831589294641,0.5913742484453985,0.3396041111734714,0.1819693506060513,0.08727630124768639,0.3471015744821237,0.3895118988975811,0.4501156036523968,0.5189327241382448,0.5616010077284332,1.263170361259572,0.8446427574919432,0.7476978837531064,0.6362669464167412,0.8735783782075665,0.6771609416681079,0.5832568412364073,0.5039997379955524,749.4505494505495,755.8974358974359,799.4139194139194,753.8827838827839,647.1062271062272,-0.358154,0.095642,0.917969,2.721558,-4.022522,-2.011261,1,1,1,1,1,75.000000
2023-09-12 16:07:10.935,0.422342402524047,-0.1752358274165024,0.7256214000174448,0.566118947857964,0.2458384922013332,-0.02767378029948808,-0.02850950905800164,0.3706665190526092,0.6958148258227421,0.56044885977972,0.5348357754052712,0.661955657727734,1.203939257210149,1.398064828925344,0.7799159507977781,0.5768136050947377,0.9039580811522304,0.7729511166548763,0.4350716241247288,0.4665618540028543,860.2564102564103,781.2820512820513,810.6959706959707,825.2014652014652,932.3809523809524,-0.370056,0.084351,0.912598,1.839294,-4.605713,3.581390,1,1,1,1,1,100.000000
2023-09-12 16:07:11.521,,,,,,,,,,,,,,,,,,,,,,,,,,,,,,,,,,,,,,/muse/elements/blink
2023-09-12 16:07:11.935,0.2627491993989772,0.1373599020007975,0.3039889936890458,1.137051098415126,0.3307016677070264,0.07111586875676194,-0.4112805827042401,1.000888756717916,0.6398981476813391,0.5926291289457931,0.1515786852785621,1.258623207450927,1.081429164928237,1.294663495069728,0.6012131162608459,0.6134775798039087,0.9782823075427038,0.9316803202111088,0.4815192763870529,0.3251640798975507,821.5750915750916,793.7728937728938,786.5201465201466,802.6373626373627,1005.311355311355,-0.481689,0.088684,0.863220,0.119629,-8.568420,-6.355286,1,1,1,1,1,100.000000
2023-09-12 16:07:12.935,0.3689064733834201,0.2654848892595914,0.9250665018147202,1.448505105160674,0.4905534031981545,0.2100868136393643,-0.08600579652293694,1.341589733869943,0.5301915889202398,0.5472866833987359,0.4651950308328529,1.258623207450927,0.9604105664008783,1.19390648337301,0.5750993146280832,0.7114933403656306,0.8162444920207296,1.008209489986099,0.05087338325005897,0.1982747353682529,746.2271062271062,763.956043956044,814.3223443223443,752.6739926739926,582.6373626373627,-0.373840,0.068848,0.932922,0.478516,-6.093597,-1.233673,1,1,1,1,1,100.000000
2023-09-12 16:07:13.946,0.3689064733834201,0.2654848892595914,0.8303592200369982,0.5559286141045567,0.4905534031981545,0.2100868136393643,-0.03414201840391341,0.2386885720465584,0.5301915889202398,0.5472866833987359,0.3736723695127358,0.3406149881143515,0.9604105664008783,1.19390648337301,0.4647433959388764,0.5568485709320763,0.8162444920207296,1.008209489986099,0.1443257508738048,0.2493860757036677,765.9706959706959,777.6556776556777,793.7728937728938,793.7728937728938,671.2820512820513,-0.181702,0.059509,0.973206,2.018738,-3.454285,-6.138458,1,1,1,1,1,100.000000
2023-09-12 16:07:14.488,,,,,,,,,,,,,,,,,,,,,,,,,,,,,,,,,,,,,,/muse/elements/blink
2023-09-12 16:07:14.940,0.3689064733834201,0.7944094118234395,1.027032663619714,0.5559286141045567,0.4905534031981545,0.6845699429159734,0.2373785414794541,0.2386885720465584,0.5301915889202398,0.07795655178791462,0.1651168027596972,0.3406149881143515,0.9604105664008783,0.8500915726559236,0.2003012291661886,0.5568485709320763,0.8162444920207296,0.6883085919273761,0.1041231641588517,0.2493860757036677,852.6007326007326,772.4175824175825,788.5347985347986,818.7545787545788,927.5457875457876,-0.380554,0.089111,0.909912,3.147736,-11.469421,-0.882263,1,1,1,1,1,100.000000
2023-09-12 16:07:15.721,,,,,,,,,,,,,,,,,,,,,,,,,,,,,,,,,,,,,,/muse/elements/blink
2023-09-12 16:07:15.935,0.3689064733834201,0.7944094118234395,0.98557800245067,0.5559286141045567,0.4905534031981545,0.6845699429159734,0.2586362904240954,0.2386885720465584,0.5301915889202398,0.07795655178791462,0.1368961755776466,0.3406149881143515,0.9604105664008783,0.8500915726559236,0.5576950628165579,0.5568485709320763,0.8162444920207296,0.6883085919273761,0.3310266273527053,0.2493860757036677,851.3919413919414,813.5164835164835,781.6849816849817,830.0366300366301,705.934065934066,-0.421143,0.059204,0.905701,4.314117,5.248718,-7.282410,1,2,1,1,2,100.000000
2023-09-12 16:07:16.942,0.3689064733834201,0.7944094118234395,0.98557800245067,0.5559286141045567,0.4905534031981545,0.6845699429159734,0.2586362904240954,0.2386885720465584,0.5301915889202398,0.07795655178791462,0.1368961755776466,0.3406149881143515,0.9604105664008783,0.8500915726559236,0.5576950628165579,0.5568485709320763,0.8162444920207296,0.6883085919273761,0.3310266273527053,0.2493860757036677,729.7069597069598,759.1208791208792,780.0732600732601,735.7509157509157,788.1318681318681,-0.390930,0.081360,0.914551,1.271057,-7.902985,1.405640,1,2,1,1,2,100.000000
2023-09-12 16:07:17.934,0.3689064733834201,0.7944094118234395,0.98557800245067,0.5559286141045567,0.4905534031981545,0.6845699429159734,0.2586362904240954,0.2386885720465584,0.5301915889202398,0.07795655178791462,0.1368961755776466,0.3406149881143515,0.9604105664008783,0.8500915726559236,0.5576950628165579,0.5568485709320763,0.8162444920207296,0.6883085919273761,0.3310266273527053,0.2493860757036677,789.7435897435897,763.956043956044,803.4432234432235,790.952380952381,916.2637362637363,-0.371582,0.088074,0.916138,3.110352,-3.491669,-0.000000,1,2,1,1,2,100.000000
2023-09-12 16:07:18.524,,,,,,,,,,,,,,,,,,,,,,,,,,,,,,,,,,,,,,/muse/elements/blink
2023-09-12 16:07:18.935,0.3689064733834201,0.7944094118234395,0.98557800245067,0.5559286141045567,0.4905534031981545,0.6845699429159734,0.2586362904240954,0.2386885720465584,0.5301915889202398,0.07795655178791462,0.1368961755776466,0.3406149881143515,0.9604105664008783,0.8500915726559236,0.5576950628165579,0.5568485709320763,0.8162444920207296,0.6883085919273761,0.3310266273527053,0.2493860757036677,1013.369963369963,849.7802197802198,880,918.6813186813187,891.6849816849817,-0.556091,0.083130,0.809692,2.190704,-6.721649,1.786957,1,2,1,1,2,100.000000
2023-09-12 16:07:18.944,,,,,,,,,,,,,,,,,,,,,,,,,,,,,,,,,,,,,,/muse/elements/jaw_clench
2023-09-12 16:07:19.121,,,,,,,,,,,,,,,,,,,,,,,,,,,,,,,,,,,,,,/muse/elements/blink
2023-09-12 16:07:19.942,0.3689064733834201,0.7944094118234395,0.98557800245067,0.5559286141045567,0.4905534031981545,0.6845699429159734,0.2586362904240954,0.2386885720465584,0.5301915889202398,0.07795655178791462,0.1368961755776466,0.3406149881143515,0.9604105664008783,0.8500915726559236,0.5576950628165579,0.5568485709320763,0.8162444920207296,0.6883085919273761,0.3310266273527053,0.2493860757036677,825.2014652014652,791.7582417582418,776.0439560439561,791.3553113553114,877.1794871794872,-0.526794,0.095398,0.830322,1.069183,-3.917847,1.764526,1,2,1,1,2,100.000000
2023-09-12 16:07:20.935,0.3689064733834201,0.7944094118234395,0.98557800245067,0.5559286141045567,0.4905534031981545,0.6845699429159734,0.2586362904240954,0.2386885720465584,0.5301915889202398,0.07795655178791462,0.1368961755776466,0.3406149881143515,0.9604105664008783,0.8500915726559236,0.5576950628165579,0.5568485709320763,0.8162444920207296,0.6883085919273761,0.3310266273527053,0.2493860757036677,899.3406593406594,829.2307692307693,770.8058608058608,878.7912087912089,957.3626373626374,-0.537598,0.108398,0.834656,-9.054413,-2.138367,31.559601,1,2,1,1,2,100.000000
2023-09-12 16:07:21.048,,,,,,,,,,,,,,,,,,,,,,,,,,,,,,,,,,,,,,/muse/elements/blink
2023-09-12 16:07:21.935,0.3689064733834201,0.7944094118234395,1.02141528268379,0.5559286141045567,0.4905534031981545,0.6845699429159734,0.559828780776138,0.2386885720465584,0.5301915889202398,0.07795655178791462,0.1231675126663192,0.3406149881143515,0.9604105664008783,0.8500915726559236,0.1490668608816367,0.5568485709320763,0.8162444920207296,0.6883085919273761,0.09131264752711164,0.2493860757036677,798.6080586080586,801.4285714285714,797.8021978021978,783.6996336996338,768.7912087912088,-0.443848,0.078796,0.881165,-4.433746,5.480499,26.834259,1,2,1,1,2,100.000000
2023-09-12 16:07:22.944,0.3689064733834201,0.7944094118234395,1.077912860943208,0.5559286141045567,0.4905534031981545,0.6845699429159734,0.2571146914729206,0.2386885720465584,0.5301915889202398,0.07795655178791462,0.105470122898714,0.3406149881143515,0.9604105664008783,0.8500915726559236,0.1548588823011242,0.5568485709320763,0.8162444920207296,0.6883085919273761,0.213227800892604,0.2493860757036677,794.981684981685,796.996336996337,806.2637362637363,814.3223443223443,815.5311355311355,-0.349792,0.094421,0.940430,7.013245,1.921539,-5.959015,1,2,1,1,2,100.000000
2023-09-12 16:07:23.935,0.3689064733834201,0.7944094118234395,1.077912860943208,1.148439972713737,0.4905534031981545,0.6845699429159734,0.2571146914729206,0.974085437265588,0.5301915889202398,0.07795655178791462,0.105470122898714,0.8959981606924049,0.9604105664008783,0.8500915726559236,0.1548588823011242,0.5363428890882405,0.8162444920207296,0.6883085919273761,0.213227800892604,0.4090683352345795,839.3040293040293,788.1318681318681,828.021978021978,811.0989010989011,960.989010989011,-0.499512,0.095947,0.852600,3.715973,15.903168,-2.938385,1,1,1,1,1,100.000000
2023-09-12 16:07:24.935,0.3689064733834201,0.7944094118234395,0.870299824546428,1.017260442560266,0.4905534031981545,0.6845699429159734,-0.2255909942312046,0.7678071367138954,0.5301915889202398,0.07795655178791462,0.3332675272041202,0.8921989017724974,0.9604105664008783,0.8500915726559236,0.5406680513955046,0.6951080501157518,0.8162444920207296,0.6883085919273761,0.3991550660554646,0.3817802517848427,836.0805860805862,775.2380952380953,796.5934065934066,807.0695970695971,612.8571428571429,-0.449341,0.040344,0.877197,2.033691,-4.994507,2.968292,1,1,1,1,1,100.000000
2023-09-12 16:07:25.940,0.2027022047579883,0.3285824765596639,0.761759337371452,0.3993243137704373,0.02071482946178146,0.02859190426887526,-0.0928420239008815,0.2577488054166545,0.6221940553394761,0.3797501646568466,0.5879649188524786,0.6522730558362396,1.068153712271762,1.029720097644983,0.5270481483187874,0.7928582064512263,0.6117929859325595,0.7728882721196483,0.3446570888772759,0.3207642945037264,814.3223443223443,799.0109890109891,796.996336996337,794.5787545787546,786.9230769230769,-0.441162,0.060120,0.884094,0.994415,3.244934,12.635803,1,1,1,1,1,100.000000
2023-09-12 16:07:26.935,0.284248853124243,0.3117526594684818,0.399974207292394,0.68544722644806,0.1878038035103531,0.02678526730766727,-0.07493763546054967,0.57233101662926,0.6685742695081587,0.489945814127175,0.339611843677615,0.6748506788832606,1.06422813334162,1.081066494429968,0.4081538289904103,0.6594804703250057,0.5781771675130218,0.8323481233250007,0.1146392353543531,0.2875785023990765,781.2820512820513,777.6556776556777,779.2673992673992,765.1648351648352,1044.395604395604,-0.223755,0.052307,0.949707,-0.590668,12.187195,-1.173859,1,1,1,1,1,100.000000
2023-09-12 16:07:27.166,,,,,,,,,,,,,,,,,,,,,,,,,,,,,,,,,,,,,,/muse/elements/blink
2023-09-12 16:07:27.935,0.34259660026382,0.4523796353985352,0.9470494291297008,0.9241776751606187,0.2502024677570099,-0.1442551986020204,0.1571975893549279,0.771280668961611,0.5703631676207548,0.438835347334881,0.5037065855200937,0.6446407551185848,1.077495810712739,1.169103242908742,0.3639448723978383,0.5145000493362272,0.5107137676232837,0.9706579371695181,0.2108284292399935,0.3047125699215618,782.4908424908425,733.3333333333334,786.5201465201466,763.5531135531136,766.3736263736264,-0.408936,0.077271,0.910950,4.134674,-10.946045,1.263580,1,1,1,1,1,100.000000
2023-09-12 16:07:28.935,0.34259660026382,0.5132615289607718,0.91801629348035,0.8141152923729695,0.2502024677570099,-0.08006020780968959,0.229503973991545,0.7857410958481598,0.5703631676207548,0.5477443986574143,0.2545610522837323,0.4415281205668352,1.077495810712739,0.9216132371700296,0.3939167559234604,0.4788788318137166,0.5107137676232837,0.5797351569973785,0.1602854931833031,0.1816021837332728,824.3956043956044,760.3296703296703,807.0695970695971,804.2490842490843,815.1282051282052,-0.355835,0.111145,0.916382,0.134583,-5.084229,-0.867310,1,1,1,1,1,100.000000
2023-09-12 16:07:29.942,0.5365982907374595,0.5808098613434287,0.4608464311644631,0.5263636252516676,0.006076991969289983,-0.1339637400947206,0.06097145487805437,0.6995511495947309,0.3931034678442808,0.5867852443654067,0.1987795072323609,0.502778586322681,0.6771978578075736,0.9008050560720181,0.381193550303879,0.4971685979281556,0.4459046658552022,0.503417836143596,0.2371390679599904,0.2494226419868589,903.3699633699634,782.4908424908425,798.6080586080586,873.5531135531136,971.8681318681319,-0.360046,0.142883,0.918457,5.697327,3.244934,1.046753,1,1,1,1,1,100.000000
2023-09-12 16:07:30.000,,,,,,,,,,,,,,,,,,,,,,,,,,,,,,,,,,,,,,/muse/elements/blink
2023-09-12 16:07:30.935,0.5365982907374595,0.3672487225987194,0.382876470625888,0.274119741206974,0.006076991969289983,-0.003510137263073926,0.1619557610532015,0.1634933373508591,0.3931034678442808,0.7690515450025923,0.2452057873461966,0.2985253730447338,0.6771978578075736,1.091192367267912,0.4097636380266573,0.457340142603445,0.4459046658552022,0.6828987020371639,0.09638555488296718,0.216286862037749,804.2490842490843,756.3003663003664,798.6080586080586,794.981684981685,583.4432234432235,-0.346497,0.104919,0.915161,4.658051,-4.972076,-0.186920,1,1,1,1,1,100.000000
2023-09-12 16:07:31.322,,,,,,,,,,,,,,,,,,,,,,,,,,,,,,,,,,,,,,/muse/elements/blink
2023-09-12 16:07:31.542,,,,,,,,,,,,,,,,,,,,,,,,,,,,,,,,,,,,,,/muse/elements/jaw_clench
2023-09-12 16:07:31.742,,,,,,,,,,,,,,,,,,,,,,,,,,,,,,,,,,,,,,/muse/elements/blink
2023-09-12 16:07:31.918,,,,,,,,,,,,,,,,,,,,,,,,,,,,,,,,,,,,,,/muse/elements/blink
2023-09-12 16:07:31.935,0.5365982907374595,0.1263057067595971,0.2537093484217235,0.274119741206974,0.006076991969289983,-0.2389826616641529,-0.2225386201717712,0.1634933373508591,0.3931034678442808,0.6052016024197467,0.3096420935222964,0.2985253730447338,0.6771978578075736,0.9512539254044056,0.279336926420484,0.457340142603445,0.4459046658552022,0.7202210386536062,0.07535528081884907,0.216286862037749,560.8791208791209,486.7399267399268,488.7545787545787,606.8131868131868,817.948717948718,-0.454285,0.082947,0.885315,0.919647,-6.003876,1.981354,1,1,1,1,1,100.000000
2023-09-12 16:07:32.248,,,,,,,,,,,,,,,,,,,,,,,,,,,,,,,,,,,,,,/muse/elements/blink
2023-09-12 16:07:32.935,0.5365982907374595,0.0272948283761797,0.111927471572581,0.274119741206974,0.006076991969289983,-0.1248867760770521,-0.5133473094239346,0.1634933373508591,0.3931034678442808,0.3867652402994871,0.2794170137628578,0.2985253730447338,0.6771978578075736,0.8432465320016224,0.2179321133887149,0.457340142603445,0.4459046658552022,0.708225439399069,0.1071931568426883,0.216286862037749,1006.923076923077,671.6849816849817,672.0879120879121,911.4285714285714,888.8644688644689,-0.447510,0.094116,0.867615,0.388794,-2.983246,-0.657959,1,2,1,1,2,100.000000
2023-09-12 16:07:33.565,,,,,,,,,,,,,,,,,,,,,,,,,,,,,,,,,,,,,,/muse/elements/blink
2023-09-12 16:07:33.848,,,,,,,,,,,,,,,,,,,,,,,,,,,,,,,,,,,,,,/muse/elements/blink
2023-09-12 16:07:33.935,0.5365982907374595,0.0272948283761797,0.111927471572581,0.274119741206974,0.006076991969289983,-0.1248867760770521,-0.5133473094239346,0.1634933373508591,0.3931034678442808,0.3867652402994871,0.2794170137628578,0.2985253730447338,0.6771978578075736,0.8432465320016224,0.2179321133887149,0.457340142603445,0.4459046658552022,0.708225439399069,0.1071931568426883,0.216286862037749,1118.937728937729,912.6373626373627,945.2747252747253,1024.652014652015,867.1062271062272,-0.450378,0.074158,0.885437,-23.342590,-2.841187,57.249908,1,2,1,1,2,100.000000
2023-09-12 16:07:34.369,,,,,,,,,,,,,,,,,,,,,,,,,,,,,,,,,,,,,,/muse/elements/blink
2023-09-12 16:07:34.935,0.5365982907374595,0.0272948283761797,0.111927471572581,0.274119741206974,0.006076991969289983,-0.1248867760770521,-0.5133473094239346,0.1634933373508591,0.3931034678442808,0.3867652402994871,0.2794170137628578,0.2985253730447338,0.6771978578075736,0.8432465320016224,0.2179321133887149,0.457340142603445,0.4459046658552022,0.708225439399069,0.1071931568426883,0.216286862037749,958.1684981684982,772.014652014652,859.047619047619,897.7289377289378,866.3003663003664,-0.464050,0.052063,0.855835,3.394470,-11.805878,3.820648,1,2,1,1,2,100.000000
2023-09-12 16:07:35.069,,,,,,,,,,,,,,,,,,,,,,,,,,,,,,,,,,,,,,/muse/elements/blink
2023-09-12 16:07:35.935,0.5365982907374595,0.0272948283761797,0.111927471572581,0.274119741206974,0.006076991969289983,-0.1248867760770521,-0.5133473094239346,0.1634933373508591,0.3931034678442808,0.3867652402994871,0.2794170137628578,0.2985253730447338,0.6771978578075736,0.8432465320016224,0.2179321133887149,0.457340142603445,0.4459046658552022,0.708225439399069,0.1071931568426883,0.216286862037749,876.7765567765568,775.6410256410256,802.6373626373627,838.4981684981685,958.1684981684982,-0.500977,0.099182,0.860779,7.536621,10.467529,-24.351959,1,2,1,1,2,100.000000
2023-09-12 16:07:36.938,0.5365982907374595,0.0272948283761797,0.111927471572581,0.274119741206974,0.006076991969289983,-0.1248867760770521,-0.5133473094239346,0.1634933373508591,0.3931034678442808,0.3867652402994871,0.2794170137628578,0.2985253730447338,0.6771978578075736,0.8432465320016224,0.2179321133887149,0.457340142603445,0.4459046658552022,0.708225439399069,0.1071931568426883,0.216286862037749,829.6336996336996,786.1172161172161,783.2967032967033,790.1465201465202,733.7362637362637,-0.487915,0.006470,0.867798,0.844879,-3.648682,3.424377,1,2,1,1,2,100.000000
2023-09-12 16:07:37.631,,,,,,,,,,,,,,,,,,,,,,,,,,,,,,,,,,,,,,/muse/elements/blink
2023-09-12 16:07:37.935,0.5365982907374595,0.0272948283761797,0.5772222719550236,0.274119741206974,0.006076991969289983,-0.1248867760770521,0.5449437600411607,0.1634933373508591,0.3931034678442808,0.3867652402994871,0.4394470753767099,0.2985253730447338,0.6771978578075736,0.8432465320016224,0.7763813928899586,0.457340142603445,0.4459046658552022,0.708225439399069,0.3967483878424246,0.216286862037749,849.3772893772895,788.9377289377289,773.6263736263736,818.3516483516484,890.0732600732601,-0.464966,0.091431,0.893982,-6.243134,-15.589142,32.725983,1,2,1,1,2,100.000000
2023-09-12 16:07:38.934,0.5365982907374595,0.0272948283761797,0.9022785139049472,0.274119741206974,0.006076991969289983,-0.1248867760770521,0.6718843920691394,0.1634933373508591,0.3931034678442808,0.3867652402994871,0.324735654996307,0.2985253730447338,0.6771978578075736,0.8432465320016224,0.8085233895521424,0.457340142603445,0.4459046658552022,0.708225439399069,0.4315553556987105,0.216286862037749,851.7948717948718,759.5238095238095,788.9377289377289,826.007326007326,941.6483516483516,-0.453674,0.049988,0.885986,0.687866,-5.854340,-1.151428,1,2,1,1,2,100.000000
2023-09-12 16:07:39.935,0.7510013864862419,0.0272948283761797,0.9955568266162776,0.6623259355683239,0.8646646205400974,-0.1248867760770521,0.521796017335709,0.7206244149191128,0.8556763511092956,0.3867652402994871,0.7937122644133179,0.6434295929330403,1.137760842780285,0.8432465320016224,0.863395411453273,0.5804995758120268,0.8628657080487772,0.708225439399069,0.7064827701983608,0.3844274671095328,873.956043956044,781.6849816849817,765.5677655677656,852.6007326007326,568.1318681318681,-0.458557,0.063904,0.876465,-0.800018,-3.028107,-0.209351,1,1,1,1,1,100.000000
2023-09-12 16:07:40.367,,,,,,,,,,,,,,,,,,,,,,,,,,,,,,,,,,,,,,/muse/elements/blink
2023-09-12 16:07:40.547,,,,,,,,,,,,,,,,,,,,,,,,,,,,,,,,,,,,,,/muse/elements/blink
2023-09-12 16:07:40.547,,,,,,,,,,,,,,,,,,,,,,,,,,,,,,,,,,,,,,/muse/elements/jaw_clench
2023-09-12 16:07:40.769,,,,,,,,,,,,,,,,,,,,,,,,,,,,,,,,,,,,,,/muse/elements/blink
2023-09-12 16:07:40.935,0.7721334897652726,0.0272948283761797,1.050964735794516,0.7323916818466765,0.8583788257930627,-0.1248867760770521,0.5638856142034211,0.7210881321013463,0.7916131914843457,0.3867652402994871,0.7937122644133179,0.629307916818224,1.149721883604704,0.8432465320016224,0.872409018047905,0.6446118294418522,0.8190484818312033,0.708225439399069,0.731339801983765,0.3498006496603542,1022.234432234432,781.2820512820513,818.3516483516484,951.3186813186813,914.2490842490843,-0.505432,0.118469,0.861084,1.764526,-10.527344,5.054321,1,1,1,1,1,100.000000
2023-09-12 16:07:41.301,,,,,,,,,,,,,,,,,,,,,,,,,,,,,,,,,,,,,,/muse/elements/blink
2023-09-12 16:07:41.482,,,,,,,,,,,,,,,,,,,,,,,,,,,,,,,,,,,,,,/muse/elements/blink
2023-09-12 16:07:41.769,,,,,,,,,,,,,,,,,,,,,,,,,,,,,,,,,,,,,,/muse/elements/blink
2023-09-12 16:07:41.935,0.7721334897652726,0.0272948283761797,1.113620121956096,0.8143995181372086,0.8583788257930627,-0.1248867760770521,0.5945566594199047,0.7457040855585552,0.7916131914843457,0.3867652402994871,0.7937122644133179,0.5137582632094521,1.149721883604704,0.8432465320016224,0.8923236634064265,0.7195037443337805,0.8190484818312033,0.708225439399069,0.7600259658057438,0.3289956090844079,968.2417582417582,784.9084249084249,806.6666666666667,922.7106227106227,845.3479853479854,-0.381226,0.073547,0.903076,2.691650,-11.536713,-10.392761,1,1,1,1,1,100.000000
2023-09-12 16:07:41.990,,,,,,,,,,,,,,,,,,,,,,,,,,,,,,,,,,,,,,/muse/elements/blink
2023-09-12 16:07:42.273,,,,,,,,,,,,,,,,,,,,,,,,,,,,,,,,,,,,,,/muse/elements/blink
2023-09-12 16:07:42.689,,,,,,,,,,,,,,,,,,,,,,,,,,,,,,,,,,,,,,/muse/elements/blink
2023-09-12 16:07:42.942,0.7721334897652726,0.0272948283761797,1.113620121956096,0.8143995181372086,0.8583788257930627,-0.1248867760770521,0.5945566594199047,0.7457040855585552,0.7916131914843457,0.3867652402994871,0.7937122644133179,0.5137582632094521,1.149721883604704,0.8432465320016224,0.8923236634064265,0.7195037443337805,0.8190484818312033,0.708225439399069,0.7600259658057438,0.3289956090844079,954.1391941391942,827.6190476190476,784.1025641025641,921.9047619047619,843.7362637362637,-0.369202,0.085022,0.896240,12.830200,14.033966,3.947754,1,2,1,1,2,100.000000
2023-09-12 16:07:43.126,,,,,,,,,,,,,,,,,,,,,,,,,,,,,,,,,,,,,,/muse/elements/blink
2023-09-12 16:07:43.935,0.7721334897652726,0.0272948283761797,1.113620121956096,0.8143995181372086,0.8583788257930627,-0.1248867760770521,0.5945566594199047,0.7457040855585552,0.7916131914843457,0.3867652402994871,0.7937122644133179,0.5137582632094521,1.149721883604704,0.8432465320016224,0.8923236634064265,0.7195037443337805,0.8190484818312033,0.708225439399069,0.7600259658057438,0.3289956090844079,844.1391941391942,790.5494505494506,782.4908424908425,842.9304029304029,873.5531135531136,-0.478271,0.101379,0.859436,-2.033691,-3.611298,-6.190796,1,2,1,1,2,100.000000
2023-09-12 16:07:44.713,,,,,,,,,,,,,,,,,,,,,,,,,,,,,,,,,,,,,,/muse/elements/blink
2023-09-12 16:07:44.943,0.7721334897652726,0.0272948283761797,1.113620121956096,0.8143995181372086,0.8583788257930627,-0.1248867760770521,0.5945566594199047,0.7457040855585552,0.7916131914843457,0.3867652402994871,0.7937122644133179,0.5137582632094521,1.149721883604704,0.8432465320016224,0.8923236634064265,0.7195037443337805,0.8190484818312033,0.708225439399069,0.7600259658057438,0.3289956090844079,823.1868131868132,770.8058608058608,787.3260073260074,805.8608058608058,877.1794871794872,-0.496521,0.171814,0.860718,4.605713,4.762726,10.482483,1,2,1,1,2,100.000000
2023-09-12 16:07:45.939,0.7721334897652726,0.0272948283761797,1.113620121956096,1.06836758320238,0.8583788257930627,-0.1248867760770521,0.5945566594199047,1.167385669435369,0.7916131914843457,0.3867652402994871,0.7937122644133179,1.355859149227502,1.149721883604704,0.8432465320016224,0.8923236634064265,1.004072895507589,0.8190484818312033,0.708225439399069,0.7600259658057438,0.5563104643494134,822.3809523809524,775.6410256410256,803.4432234432235,817.1428571428571,843.3333333333334,-0.510010,0.115417,0.860168,2.721558,2.295380,-4.426270,1,1,1,1,1,100.000000
2023-09-12 16:07:46.455,,,,,,,,,,,,,,,,,,,,,,,,,,,,,,,,,,,,,,/muse/elements/jaw_clench
2023-09-12 16:07:46.634,,,,,,,,,,,,,,,,,,,,,,,,,,,,,,,,,,,,,,/muse/elements/blink
2023-09-12 16:07:46.935,0.7721334897652726,0.0272948283761797,0.8689484343997841,1.022021321183791,0.8583788257930627,-0.1248867760770521,0.3800568316331965,0.7073668392812542,0.7916131914843457,0.3867652402994871,0.4227007417340597,0.7219225072000881,1.149721883604704,0.8432465320016224,0.6439152294284363,0.8698004535671714,0.8190484818312033,0.708225439399069,0.1443162823601953,0.5389094275605382,1018.608058608059,901.7582417582418,867.1062271062272,960.1831501831502,871.941391941392,-0.436096,0.024292,0.888489,-4.082336,-8.755341,24.202423,1,1,1,1,1,100.000000
2023-09-12 16:07:46.964,,,,,,,,,,,,,,,,,,,,,,,,,,,,,,,,,,,,,,/muse/elements/blink
2023-09-12 16:07:47.144,,,,,,,,,,,,,,,,,,,,,,,,,,,,,,,,,,,,,,/muse/elements/blink
2023-09-12 16:07:47.390,,,,,,,,,,,,,,,,,,,,,,,,,,,,,,,,,,,,,,/muse/elements/blink
2023-09-12 16:07:47.788,,,,,,,,,,,,,,,,,,,,,,,,,,,,,,,,,,,,,,/muse/elements/blink
2023-09-12 16:07:47.935,0.7721334897652726,0.0272948283761797,0.9177599769826837,1.022021321183791,0.8583788257930627,-0.1248867760770521,0.3798141866600645,0.7073668392812542,0.7916131914843457,0.3867652402994871,0.405404130684967,0.7219225072000881,1.149721883604704,0.8432465320016224,0.6514072913022254,0.8698004535671714,0.8190484818312033,0.708225439399069,0.1407008399264392,0.5389094275605382,875.1648351648352,855.8241758241759,823.5897435897436,853.0036630036631,874.7619047619048,-0.447205,0.092163,0.869324,3.102875,0.792542,-6.833801,1,1,1,1,1,100.000000
2023-09-12 16:07:48.935,0.7721334897652726,0.0272948283761797,0.9177599769826837,1.022021321183791,0.8583788257930627,-0.1248867760770521,0.3798141866600645,0.7073668392812542,0.7916131914843457,0.3867652402994871,0.405404130684967,0.7219225072000881,1.149721883604704,0.8432465320016224,0.6514072913022254,0.8698004535671714,0.8190484818312033,0.708225439399069,0.1407008399264392,0.5389094275605382,831.2454212454213,738.5714285714286,763.5531135531136,819.1575091575091,892.0879120879121,-0.470886,0.075500,0.872498,3.887939,2.362671,-7.402039,1,2,1,1,2,100.000000
2023-09-12 16:07:49.604,,,,,,,,,,,,,,,,,,,,,,,,,,,,,,,,,,,,,,/muse/elements/blink
2023-09-12 16:07:49.950,0.7721334897652726,0.0272948283761797,0.9177599769826837,0.9847369672171079,0.8583788257930627,-0.1248867760770521,0.3798141866600645,0.3545587548181129,0.7916131914843457,0.3867652402994871,0.405404130684967,0.6801883487867161,1.149721883604704,0.8432465320016224,0.6514072913022254,0.8286201344012208,0.8190484818312033,0.708225439399069,0.1407008399264392,0.7923236900095249,853.8095238095239,732.9304029304029,786.1172161172161,834.4688644688645,933.1868131868132,-0.388000,0.052856,0.915344,3.028107,-8.074951,3.693542,1,1,1,1,1,100.000000
2023-09-12 16:07:50.293,,,,,,,,,,,,,,,,,,,,,,,,,,,,,,,,,,,,,,/muse/elements/blink
2023-09-12 16:07:50.934,0.7721334897652726,0.0272948283761797,0.9177599769826837,0.9847369672171079,0.8583788257930627,-0.1248867760770521,0.3798141866600645,0.3545587548181129,0.7916131914843457,0.3867652402994871,0.405404130684967,0.6801883487867161,1.149721883604704,0.8432465320016224,0.6514072913022254,0.8286201344012208,0.8190484818312033,0.708225439399069,0.1407008399264392,0.7923236900095249,813.1135531135532,746.2271062271062,811.9047619047619,821.1721611721612,874.3589743589744,-0.334656,0.048706,0.930603,2.287903,-15.469513,-6.609497,1,1,1,1,1,100.000000
2023-09-12 16:07:51.221,,,,,,,,,,,,,,,,,,,,,,,,,,,,,,,,,,,,,,/muse/elements/blink
2023-09-12 16:07:51.939,0.7721334897652726,0.0272948283761797,0.9177599769826837,0.9847369672171079,0.8583788257930627,-0.1248867760770521,0.3798141866600645,0.3545587548181129,0.7916131914843457,0.3867652402994871,0.405404130684967,0.6801883487867161,1.149721883604704,0.8432465320016224,0.6514072913022254,0.8286201344012208,0.8190484818312033,0.708225439399069,0.1407008399264392,0.7923236900095249,874.7619047619048,810.2930402930403,774.4322344322345,853.8095238095239,996.8498168498169,-0.493896,0.087463,0.868774,1.121521,-4.478607,2.631836,1,2,1,1,2,100.000000
2023-09-12 16:07:52.566,,,,,,,,,,,,,,,,,,,,,,,,,,,,,,,,,,,,,,/muse/elements/blink
2023-09-12 16:07:52.877,,,,,,,,,,,,,,,,,,,,,,,,,,,,,,,,,,,,,,/muse/elements/jaw_clench
2023-09-12 16:07:52.934,0.7721334897652726,0.0272948283761797,0.9177599769826837,0.9847369672171079,0.8583788257930627,-0.1248867760770521,0.3798141866600645,0.3545587548181129,0.7916131914843457,0.3867652402994871,0.405404130684967,0.6801883487867161,1.149721883604704,0.8432465320016224,0.6514072913022254,0.8286201344012208,0.8190484818312033,0.708225439399069,0.1407008399264392,0.7923236900095249,1025.860805860806,766.3736263736264,857.032967032967,902.967032967033,922.7106227106227,-0.637451,0.048523,0.761169,2.190704,-3.573914,-1.069183,1,2,1,1,2,100.000000
2023-09-12 16:07:53.167,,,,,,,,,,,,,,,,,,,,,,,,,,,,,,,,,,,,,,/muse/elements/blink
2023-09-12 16:07:53.934,0.7721334897652726,0.0272948283761797,0.9177599769826837,0.9847369672171079,0.8583788257930627,-0.1248867760770521,0.3798141866600645,0.3545587548181129,0.7916131914843457,0.3867652402994871,0.405404130684967,0.6801883487867161,1.149721883604704,0.8432465320016224,0.6514072913022254,0.8286201344012208,0.8190484818312033,0.708225439399069,0.1407008399264392,0.7923236900095249,822.3809523809524,721.6483516483516,788.1318681318681,795.7875457875458,860.2564102564103,-0.467651,0.148376,0.874939,6.123505,-9.136658,1.338348,1,2,1,1,2,100.000000
2023-09-12 16:07:54.940,0.7721334897652726,0.0272948283761797,0.9177599769826837,0.9847369672171079,0.8583788257930627,-0.1248867760770521,0.3798141866600645,0.3545587548181129,0.7916131914843457,0.3867652402994871,0.405404130684967,0.6801883487867161,1.149721883604704,0.8432465320016224,0.6514072913022254,0.8286201344012208,0.8190484818312033,0.708225439399069,0.1407008399264392,0.7923236900095249,857.8388278388279,823.5897435897436,815.1282051282052,838.901098901099,835.6776556776557,-0.540344,0.080200,0.822815,1.899109,-3.544006,0.957031,1,2,1,1,2,100.000000
2023-09-12 16:07:55.934,0.7721334897652726,0.0272948283761797,0.8048997181850365,0.8277814613707595,0.8583788257930627,-0.1248867760770521,0.2987869317979949,0.3184864434147646,0.7916131914843457,0.3867652402994871,0.6805867306133399,1.082218309286825,1.149721883604704,0.8432465320016224,0.5934757489680197,0.7635227194940543,0.8190484818312033,0.708225439399069,0.5172864695695684,0.4243382943295568,865.0915750915751,790.952380952381,794.1758241758242,830.0366300366301,915.8608058608058,-0.505249,0.055908,0.838257,7.140350,-0.770111,0.747681,1,1,1,1,1,100.000000
2023-09-12 16:07:56.934,0.353116589135499,0.0272948283761797,0.5273200573378065,0.9218950345315297,0.6792847430660154,-0.1248867760770521,0.2176582405875162,0.7314631815453267,0.9091394518389923,0.3867652402994871,0.5413412534568532,0.8947657096258628,0.9815549622953316,0.8432465320016224,0.7297340882027623,0.8086247091726455,0.9672360361345647,0.708225439399069,0.3874055914689934,0.3753822914984968,897.7289377289378,762.7472527472528,793.7728937728938,843.7362637362637,813.5164835164835,-0.506531,0.022949,0.848022,1.330872,-9.248810,-6.445007,1,1,1,1,1,100.000000
2023-09-12 16:07:57.232,,,,,,,,,,,,,,,,,,,,,,,,,,,,,,,,,,,,,,/muse/elements/blink
2023-09-12 16:07:57.934,0.942223413362302,0.0272948283761797,0.7388815320197777,1.277570409178499,1.041733771856668,-0.1248867760770521,0.06881780669361223,1.1828040277551,1.096645482098635,0.3867652402994871,0.4403076969909395,1.232181514570718,0.9366175635362521,0.8432465320016224,0.7756956503977526,0.7182432690157415,0.9529825401113993,0.708225439399069,0.4314568289779087,0.3167416766600992,825.6043956043957,750.2564102564103,798.2051282051282,801.025641025641,886.0439560439561,-0.503723,0.058960,0.867310,-2.175751,-10.998383,-1.719666,1,1,1,1,1,100.000000
2023-09-12 16:07:58.225,,,,,,,,,,,,,,,,,,,,,,,,,,,,,,,,,,,,,,/muse/elements/blink
2023-09-12 16:07:58.561,,,,,,,,,,,,,,,,,,,,,,,,,,,,,,,,,,,,,,/muse/elements/jaw_clench
2023-09-12 16:07:58.934,1.288651147359926,0.0272948283761797,0.8034345546508557,1.572392376752762,1.3075864674694,-0.1248867760770521,-0.3857396608497381,1.506997437129482,1.079773366516229,0.3867652402994871,0.2904467041780883,1.178099924463622,0.8610968921301893,0.8432465320016224,0.7342602136474803,0.6447824899362765,0.9793606969603311,0.708225439399069,0.4079834771683912,0.412422345910418,799.0109890109891,782.893772893773,792.1611721611722,812.7106227106227,860.2564102564103,-0.520203,0.071899,0.835388,-2.818756,2.848663,15.559235,1,1,1,1,1,100.000000
2023-09-12 16:07:59.934,1.288651147359926,0.0272948283761797,0.8614014093464081,1.572392376752762,1.3075864674694,-0.1248867760770521,-0.3375108066987674,1.506997437129482,1.079773366516229,0.3867652402994871,0.252424963185313,1.178099924463622,0.8610968921301893,0.8432465320016224,0.7505712605966068,0.6447824899362765,0.9793606969603311,0.708225439399069,0.4069196374899568,0.412422345910418,833.6630036630037,794.5787545787546,810.6959706959707,803.4432234432235,788.9377289377289,-0.528320,0.103210,0.836060,0.590668,-7.790833,-6.833801,1,1,1,1,1,100.000000
2023-09-12 16:08:00.780,,,,,,,,,,,,,,,,,,,,,,,,,,,,,,,,,,,,,,/muse/elements/blink
2023-09-12 16:08:00.935,1.288651147359926,-0.07238252902467389,0.6274265269465368,0.5795879019741759,1.3075864674694,-0.3705698014887364,0.1745316744742048,0.307630575239226,1.079773366516229,0.8022287544158525,0.1673247649529129,0.1037565781607327,0.8610968921301893,1.218197666237048,0.8258039536245355,0.8421026392193737,0.9793606969603311,0.9039686987418042,0.2986350170851171,0.484886379214665,988.7912087912089,646.7032967032967,1141.501831501831,1106.849816849817,1011.355311355311,-0.428894,0.055176,0.888489,1.854248,-3.641205,0.059814,1,1,1,1,1,100.000000
2023-09-12 16:08:00.978,,,,,,,,,,,,,,,,,,,,,,,,,,,,,,,,,,,,,,/muse/elements/jaw_clench
2023-09-12 16:08:01.067,,,,,,,,,,,,,,,,,,,,,,,,,,,,,,,,,,,,,,/muse/elements/blink
2023-09-12 16:08:01.492,,,,,,,,,,,,,,,,,,,,,,,,,,,,,,,,,,,,,,/muse/elements/blink
2023-09-12 16:08:01.941,1.288651147359926,-0.06145724915075711,0.485678135069276,0.5795879019741759,1.3075864674694,-0.3407039024001433,0.303737429890107,0.307630575239226,1.079773366516229,0.7913330146924675,0.1673247649529129,0.1037565781607327,0.8610968921301893,1.194290887412007,0.7891521010028226,0.8421026392193737,0.9793606969603311,0.8125696499008972,0.2431092938102322,0.484886379214665,878.7912087912089,752.6739926739926,550,762.3443223443223,944.4688644688645,-0.288330,0.047424,0.941284,-3.446808,-5.046844,14.609680,1,1,1,1,1,100.000000
2023-09-12 16:08:02.110,,,,,,,,,,,,,,,,,,,,,,,,,,,,,,,,,,,,,,/muse/elements/blink
2023-09-12 16:08:02.486,,,,,,,,,,,,,,,,,,,,,,,,,,,,,,,,,,,,,,/muse/elements/blink
2023-09-12 16:08:02.729,,,,,,,,,,,,,,,,,,,,,,,,,,,,,,,,,,,,,,/muse/elements/blink
2023-09-12 16:08:02.912,,,,,,,,,,,,,,,,,,,,,,,,,,,,,,,,,,,,,,/muse/elements/blink
2023-09-12 16:08:02.934,1.288651147359926,-0.06145724915075711,0.485678135069276,0.5795879019741759,1.3075864674694,-0.3407039024001433,0.303737429890107,0.307630575239226,1.079773366516229,0.7913330146924675,0.1673247649529129,0.1037565781607327,0.8610968921301893,1.194290887412007,0.7891521010028226,0.8421026392193737,0.9793606969603311,0.8125696499008972,0.2431092938102322,0.484886379214665,947.2893772893773,895.7142857142858,803.8461538461539,901.3553113553114,874.7619047619048,-0.306702,0.049255,0.933167,2.504730,-2.123413,-2.317810,1,1,1,1,1,100.000000
2023-09-12 16:08:03.093,,,,,,,,,,,,,,,,,,,,,,,,,,,,,,,,,,,,,,/muse/elements/blink
2023-09-12 16:08:03.599,,,,,,,,,,,,,,,,,,,,,,,,,,,,,,,,,,,,,,/muse/elements/blink
2023-09-12 16:08:03.934,1.288651147359926,-0.06145724915075711,0.485678135069276,0.5795879019741759,1.3075864674694,-0.3407039024001433,0.303737429890107,0.307630575239226,1.079773366516229,0.7913330146924675,0.1673247649529129,0.1037565781607327,0.8610968921301893,1.194290887412007,0.7891521010028226,0.8421026392193737,0.9793606969603311,0.8125696499008972,0.2431092938102322,0.484886379214665,1008.534798534799,774.8351648351648,837.2893772893773,936.4102564102565,912.6373626373627,-0.395386,0.069641,0.914612,4.067383,0.613098,0.725250,1,2,1,4,2,100.000000
2023-09-12 16:08:03.951,,,,,,,,,,,,,,,,,,,,,,,,,,,,,,,,,,,,,,/muse/elements/blink
2023-09-12 16:08:04.217,,,,,,,,,,,,,,,,,,,,,,,,,,,,,,,,,,,,,,/muse/elements/blink
2023-09-12 16:08:04.743,,,,,,,,,,,,,,,,,,,,,,,,,,,,,,,,,,,,,,/muse/elements/blink
2023-09-12 16:08:04.934,1.288651147359926,-0.06145724915075711,0.485678135069276,0.5795879019741759,1.3075864674694,-0.3407039024001433,0.303737429890107,0.307630575239226,1.079773366516229,0.7913330146924675,0.1673247649529129,0.1037565781607327,0.8610968921301893,1.194290887412007,0.7891521010028226,0.8421026392193737,0.9793606969603311,0.8125696499008972,0.2431092938102322,0.484886379214665,889.6703296703297,792.1611721611722,805.8608058608058,825.2014652014652,644.2857142857143,-0.480530,0.059814,0.874573,5.211334,3.386993,-9.974060,1,2,1,1,2,100.000000
2023-09-12 16:08:05.688,,,,,,,,,,,,,,,,,,,,,,,,,,,,,,,,,,,,,,/muse/elements/blink
2023-09-12 16:08:05.933,1.288651147359926,-0.06145724915075711,0.485678135069276,0.5795879019741759,1.3075864674694,-0.3407039024001433,0.303737429890107,0.307630575239226,1.079773366516229,0.7913330146924675,0.1673247649529129,0.1037565781607327,0.8610968921301893,1.194290887412007,0.7891521010028226,0.8421026392193737,0.9793606969603311,0.8125696499008972,0.2431092938102322,0.484886379214665,712.3809523809524,758.3150183150184,756.3003663003664,718.021978021978,700.2930402930403,-0.366394,0.076477,0.908875,4.097290,-25.615540,2.826233,1,2,4,1,2,100.000000
