TimeStamp,Delta_TP9,Delta_AF7,Delta_AF8,Delta_TP10,Theta_TP9,Theta_AF7,Theta_AF8,Theta_TP10,Alpha_TP9,Alpha_AF7,Alpha_AF8,Alpha_TP10,Beta_TP9,Beta_AF7,Beta_AF8,Beta_TP10,Gamma_TP9,Gamma_AF7,Gamma_AF8,Gamma_TP10,RAW_TP9,RAW_AF7,RAW_AF8,RAW_TP10,AUX_RIGHT,Accelerometer_X,Accelerometer_Y,Accelerometer_Z,Gyro_X,Gyro_Y,Gyro_Z,HeadBandOn,HSI_TP9,HSI_AF7,HSI_AF8,HSI_TP10,Battery,Elements
2023-09-01 17:10:14.180,,,,,,,,,,,,,,,,,,,,,,,,,,,,,,,,,,,,,,/muse/event/connected Muse-D424
2023-09-01 17:10:14.250,,,,,,,,,,,,,,,,,,,,,,,,,,,,,,,,,,,,,,/muse/elements/jaw_clench
2023-09-01 17:10:14.252,,,,,,,,,,,,,,,,,,,,,,,,,,,,,,,,,,,,,,/muse/elements/blink
2023-09-01 17:10:14.258,,,,,,,,,,,,,,,,,,,,,,,,,,,,,,,,,,,,,,/muse/elements/blink
2023-09-01 17:10:14.258,,,,,,,,,,,,,,,,,,,,,,,,,,,,,,,,,,,,,,/muse/elements/jaw_clench
2023-09-01 17:10:14.411,,,,,,,,,,,,,,,,,,,,,,,,,,,,,,,,,,,,,,/muse/elements/blink
2023-09-01 17:10:14.935,,,,,,,,,,,,,,,,,,,,,,,,,,,,,,,,,,,,,,/muse/elements/blink
2023-09-01 17:10:15.186,1.099507666583531,0.4370148327879153,0.4307356381667687,1.255668082525243,1.032945675783688,0.4368209558508498,0.1737744121592676,1.305123123685743,0.8579280907172855,0.4058186355640975,0.3470574948460705,1.233704234891948,0.8023715849788352,1.036561229696841,1.220068110208681,0.7863554145080437,0.6822285338410631,0.8248027708831526,1.103673142635939,0.9179420796369347,790.1465201465202,814.7252747252747,788.1318681318681,813.5164835164835,1023.040293040293,-0.541016,0.015259,0.837158,-0.194397,0.164490,2.990723,1,1,1,1,1,65.000000
2023-09-01 17:10:15.393,,,,,,,,,,,,,,,,,,,,,,,,,,,,,,,,,,,,,,/muse/elements/jaw_clench
2023-09-01 17:10:15.920,,,,,,,,,,,,,,,,,,,,,,,,,,,,,,,,,,,,,,/muse/elements/blink
2023-09-01 17:10:16.181,1.099507666583531,0.4370148327879153,0.4307356381667687,1.255668082525243,1.032945675783688,0.4368209558508498,0.1737744121592676,1.305123123685743,0.8579280907172855,0.4058186355640975,0.3470574948460705,1.233704234891948,0.8023715849788352,1.036561229696841,1.220068110208681,0.7863554145080437,0.6822285338410631,0.8248027708831526,1.103673142635939,0.9179420796369347,664.4322344322344,805.8608058608058,803.8461538461539,763.956043956044,802.2344322344322,-0.477234,0.022827,0.882751,1.196289,-12.994690,2.018738,1,2,1,1,2,65.000000
2023-09-01 17:10:16.535,,,,,,,,,,,,,,,,,,,,,,,,,,,,,,,,,,,,,,/muse/elements/blink
2023-09-01 17:10:16.952,,,,,,,,,,,,,,,,,,,,,,,,,,,,,,,,,,,,,,/muse/elements/jaw_clench
2023-09-01 17:10:17.041,,,,,,,,,,,,,,,,,,,,,,,,,,,,,,,,,,,,,,/muse/elements/blink
2023-09-01 17:10:17.130,,,,,,,,,,,,,,,,,,,,,,,,,,,,,,,,,,,,,,/muse/elements/jaw_clench
2023-09-01 17:10:17.185,1.099507666583531,0.4529628751184629,-0.1523397277180593,1.255668082525243,1.032945675783688,0.1481892258630162,0.07063746597298659,1.305123123685743,0.8579280907172855,0.5065977148826886,0.7806967807914085,1.233704234891948,0.8023715849788352,1.012914493187224,1.25569805429075,0.7863554145080437,0.6822285338410631,0.8788226873249372,1.127433986896466,0.9179420796369347,533.8827838827839,810.2930402930403,768.3882783882784,728.4981684981685,753.8827838827839,-0.304077,-0.003845,0.937256,0.538330,-0.530853,0.007477,1,2,1,1,2,65.000000
2023-09-01 17:10:18.181,1.099507666583531,0.4687117670959861,-0.201638701524402,1.583534988962701,1.032945675783688,0.1529043568047475,0.09348349164419453,1.430698103241191,0.8579280907172855,0.5065977148826886,0.7806967807914085,1.032002009177605,0.8023715849788352,1.021058255419446,1.26059914580366,0.8748723670896001,0.6822285338410631,0.8641172408960425,1.123701169030746,0.5662358538672374,1089.92673992674,777.6556776556777,821.5750915750916,927.5457875457876,892.893772893773,-0.326172,0.005249,0.940857,-1.353302,1.667328,12.247009,1,1,1,1,1,65.000000
2023-09-01 17:10:19.181,1.099507666583531,0.4687117670959861,-0.201638701524402,1.583534988962701,1.032945675783688,0.1529043568047475,0.09348349164419453,1.430698103241191,0.8579280907172855,0.5065977148826886,0.7806967807914085,1.032002009177605,0.8023715849788352,1.021058255419446,1.26059914580366,0.8748723670896001,0.6822285338410631,0.8641172408960425,1.123701169030746,0.5662358538672374,1089.92673992674,777.6556776556777,821.5750915750916,927.5457875457876,892.893772893773,-0.326172,0.005249,0.940857,-1.353302,1.667328,12.247009,1,1,1,1,1,65.000000
2023-09-01 17:10:19.484,,,,,,,,,,,,,,,,,,,,,,,,,,,,,,,,,,,,,,/muse/event/disconnected Muse-D424
2023-09-01 17:10:28.227,,,,,,,,,,,,,,,,,,,,,,,,,,,,,,,,,,,,,,/muse/event/connected Muse-D424
2023-09-01 17:10:29.181,1.099507666583531,0.4687117670959861,-0.201638701524402,1.583534988962701,1.032945675783688,0.1529043568047475,0.09348349164419453,1.430698103241191,0.8579280907172855,0.5065977148826886,0.7806967807914085,1.032002009177605,0.8023715849788352,1.021058255419446,1.26059914580366,0.8748723670896001,0.6822285338410631,0.8641172408960425,1.123701169030746,0.5662358538672374,1096.776556776557,780.4761904761905,791.7582417582418,875.9706959706959,898.1318681318681,-0.351013,0.026917,0.918945,2.542114,-2.377625,-0.575714,1,1,1,1,1,65.000000
2023-09-01 17:10:30.180,0,0,0,0,0,0,0,0,0,0,0,0,0,0,0,0,0,0,0,0,965.8241758241759,798.6080586080586,792.967032967033,855.8241758241759,996.8498168498169,-0.363403,0.037292,0.905273,3.170166,-6.489868,-0.059814,0,4,4,4,4,65.000000
2023-09-01 17:10:31.180,0,0,0,0,0,0,0,0,0,0,0,0,0,0,0,0,0,0,0,0,908.2051282051282,779.2673992673992,825.2014652014652,846.5567765567765,1092.344322344322,-0.346619,0.030273,0.929199,2.751465,-3.304749,0.590668,0,4,4,4,4,65.000000
2023-09-01 17:10:31.828,,,,,,,,,,,,,,,,,,,,,,,,,,,,,,,,,,,,,,/muse/elements/jaw_clench
2023-09-01 17:10:31.936,,,,,,,,,,,,,,,,,,,,,,,,,,,,,,,,,,,,,,/muse/elements/blink
2023-09-01 17:10:32.180,0.8286531781571583,0,0,0,0.9526449918486208,0,0,0,0.7458800449669636,0,0,0,0.7919219649500018,0,0,0,0.6493395484490451,0,0,0,1001.282051282051,827.6190476190476,834.4688644688645,883.2234432234433,793.7728937728938,-0.342773,0.019043,0.926025,5.061798,-5.502930,-0.605621,1,1,1,1,1,65.000000
2023-09-01 17:10:33.180,0.763541004342682,0.210658334365937,0,0,0.5328208613507892,0.1491807514851216,0,0,0.6154679061127275,0.5320565728988311,0,0,0.7556391529831007,1.016100232809439,0,0,0.5919411154062365,0.918859023278881,0,0,995.2380952380953,819.1575091575091,800.6227106227107,891.2820512820513,831.2454212454213,-0.371155,0.019348,0.895996,3.925323,6.422577,-3.043060,1,1,1,1,1,65.000000
2023-09-01 17:10:33.761,,,,,,,,,,,,,,,,,,,,,,,,,,,,,,,,,,,,,,/muse/elements/blink
2023-09-01 17:10:34.181,0.7141855037348205,0.2568097335715301,0.1759176074467198,0.791987461739779,0.3626730617146578,-0.0372678291987408,0.08256573934909534,0.5840250778977091,0.5419952771448322,0.4970969671841078,0.5261947073740284,0.6743274027297882,0.7235081613085488,0.9782856059664559,1.257971873207808,0.7658470358750611,0.5602065166401479,0.9907076845677519,1.242751424061404,0.643696984778091,930.7692307692308,806.2637362637363,768.7912087912088,868.7179487179487,1034.725274725275,-0.255066,-0.009888,0.971436,-4.583282,-3.327179,2.429962,1,1,1,1,1,65.000000
2023-09-01 17:10:34.558,,,,,,,,,,,,,,,,,,,,,,,,,,,,,,,,,,,,,,/muse/elements/blink
2023-09-01 17:10:35.162,,,,,,,,,,,,,,,,,,,,,,,,,,,,,,,,,,,,,,/muse/elements/jaw_clench
2023-09-01 17:10:35.180,0.6619244795021842,0.3535995567419821,0.6466076103054369,1.376926587065875,0.2257419415638392,0.5309923551483121,0.4493147239996924,0.9423648801271156,0.5226193457101319,0.4853726385315908,0.6386174725061171,0.7799058102999161,0.739095850641323,0.9616832226789594,1.185676226180167,0.8277440104431431,0.5939246682456409,0.9088090024204166,1.251489247974253,0.7042082726104021,1011.758241758242,783.6996336996338,809.8901098901099,900.5494505494506,961.3919413919414,-0.424133,-0.015381,0.910400,3.626251,-0.171967,2.534637,1,1,1,1,1,65.000000
2023-09-01 17:10:35.917,,,,,,,,,,,,,,,,,,,,,,,,,,,,,,,,,,,,,,/muse/elements/blink
2023-09-01 17:10:36.180,0.6619244795021842,0.4161575425127514,0.6466076103054369,1.376926587065875,0.2257419415638392,0.7630558368710096,0.4493147239996924,0.9423648801271156,0.5226193457101319,0.4193633205865411,0.6386174725061171,0.7799058102999161,0.739095850641323,0.9278954033064045,1.185676226180167,0.8277440104431431,0.5939246682456409,0.8375532969000447,1.251489247974253,0.7042082726104021,992.8205128205128,784.1025641025641,738.5714285714286,892.4908424908425,845.3479853479854,-0.362000,0.000488,0.921814,2.325287,-3.566437,0.538330,1,1,1,1,1,65.000000
2023-09-01 17:10:37.180,0.6619244795021842,0.4161575425127514,0.6466076103054369,1.376926587065875,0.2257419415638392,0.7630558368710096,0.4493147239996924,0.9423648801271156,0.5226193457101319,0.4193633205865411,0.6386174725061171,0.7799058102999161,0.739095850641323,0.9278954033064045,1.185676226180167,0.8277440104431431,0.5939246682456409,0.8375532969000447,1.251489247974253,0.7042082726104021,941.6483516483516,803.8461538461539,804.6520146520147,836.8864468864469,902.967032967033,-0.296814,0.031616,0.939026,5.988922,-9.615173,-9.607697,1,2,1,1,2,65.000000
2023-09-01 17:10:38.181,1.096253439075051,0.6617669234158945,0.6466076103054369,0.5899986143098502,1.133693052022183,0.2657106694446419,0.4493147239996924,0.9547172334497571,0.9590998180288495,0.5535806436429975,0.6386174725061171,0.7020073937132948,0.8814079486917363,1.032902699047429,1.185676226180167,1.062743680790925,0.7576961694069585,0.9953448474967085,1.251489247974253,0.8983256962627112,888.8644688644689,780.8791208791209,780.0732600732601,790.5494505494506,748.6446886446887,-0.294983,0.017517,0.938477,-2.243042,-1.256104,2.467346,1,1,1,1,1,65.000000
2023-09-01 17:10:39.181,0.8204944620187834,0.3478282923753229,0.6466076103054369,0.5474050602159608,0.6787143199297337,0.109920917837849,0.4493147239996924,0.2769945719940343,0.7089295789437614,0.4573969606575641,0.6386174725061171,0.4215270254083482,1.014554045139134,1.07587358266709,1.185676226180167,0.9147059216291588,0.6703144765783718,1.114405220933472,1.251489247974253,0.8615951221868052,910.2197802197802,814.3223443223443,795.7875457875458,795.3846153846154,726.4835164835165,-0.264343,0.014282,0.961243,7.102966,-3.162689,-15.230255,1,1,1,1,1,65.000000
2023-09-01 17:10:39.334,,,,,,,,,,,,,,,,,,,,,,,,,,,,,,,,,,,,,,/muse/elements/blink
2023-09-01 17:10:40.181,0.7425845244781947,0.272668877614472,0.6466076103054369,0.5165164105800945,0.3324191416583128,0.1701372506810204,0.4493147239996924,0.1491270919575782,0.6975220114570631,0.4363549148786806,0.6386174725061171,0.3949687317681921,0.8870518855287878,1.143785263064147,1.185676226180167,0.941582896063159,0.7137299354196638,1.12664460444207,1.251489247974253,0.8313359007371588,950.9157509157509,812.7106227106227,785.3113553113553,842.1245421245421,828.4249084249085,-0.255615,-0.003052,0.953796,1.517792,-3.065491,-1.996307,1,1,1,1,1,65.000000
2023-09-01 17:10:40.973,,,,,,,,,,,,,,,,,,,,,,,,,,,,,,,,,,,,,,/muse/elements/blink
2023-09-01 17:10:41.181,0.5579165546443614,0.6316332567637047,0.420055455261672,0.3479142589679743,0.2693322587926769,0.3352159367439293,0.3779464237936113,0.565452325871322,0.7671967312046795,0.3257010794127566,0.5098735657879533,0.351911778740743,0.7710317447815673,1.062847705312312,1.187183853125775,0.816604721214182,0.6902622590179529,1.024314652899944,1.257638652704288,0.6802941956870365,836.4835164835165,802.6373626373627,778.0586080586081,769.5970695970697,796.996336996337,-0.350159,-0.001221,0.931946,1.360779,15.267639,5.248718,1,1,1,1,1,65.000000
2023-09-01 17:10:41.775,,,,,,,,,,,,,,,,,,,,,,,,,,,,,,,,,,,,,,/muse/elements/blink
2023-09-01 17:10:42.101,,,,,,,,,,,,,,,,,,,,,,,,,,,,,,,,,,,,,,/muse/elements/blink
2023-09-01 17:10:42.181,0.4030740938883993,0.5523743287027562,0.3981932640017483,0.2515125258244976,0.1090453409653833,0.3911054114408077,0.40997650105005,0.5731551602467683,0.7555319678115892,0.565910572790614,0.5569914376206505,0.3181831199035391,0.7707602858969906,1.057003539115228,1.206495814344436,0.7404527721601565,0.6569527886161209,0.8753721721697603,1.33383626596511,0.5219347907398852,885.6410256410256,790.5494505494506,783.2967032967033,799.8168498168499,709.5604395604396,-0.472717,0.008972,0.874023,1.323395,-0.971985,-2.265472,1,1,1,1,1,65.000000
2023-09-01 17:10:42.815,,,,,,,,,,,,,,,,,,,,,,,,,,,,,,,,,,,,,,/muse/elements/blink
2023-09-01 17:10:43.181,0.4030740938883993,0.5133961858423343,0.3944707669009712,0.2515125258244976,0.1090453409653833,0.3968426772560836,0.4123122713035671,0.5731551602467683,0.7555319678115892,0.662591890548616,0.5157380964881723,0.3181831199035391,0.7707602858969906,1.049651679503532,1.19890134522407,0.7404527721601565,0.6569527886161209,0.8119195673099835,1.341858445756925,0.5219347907398852,723.6630036630037,799.0109890109891,780.0732600732601,736.1538461538462,721.2454212454213,-0.504395,0.020264,0.847900,2.115936,-1.562653,-0.201874,1,1,1,1,1,65.000000
2023-09-01 17:10:43.421,,,,,,,,,,,,,,,,,,,,,,,,,,,,,,,,,,,,,,/muse/elements/jaw_clench
2023-09-01 17:10:44.029,,,,,,,,,,,,,,,,,,,,,,,,,,,,,,,,,,,,,,/muse/elements/blink
2023-09-01 17:10:44.029,,,,,,,,,,,,,,,,,,,,,,,,,,,,,,,,,,,,,,/muse/elements/jaw_clench
2023-09-01 17:10:44.181,0.4030740938883993,0.2445159293496904,0.3944707669009712,0.2515125258244976,0.1090453409653833,-0.120803733609075,0.4123122713035671,0.5731551602467683,0.7555319678115892,0.1688520635031666,0.5157380964881723,0.3181831199035391,0.7707602858969906,1.216046562000769,1.19890134522407,0.7404527721601565,0.6569527886161209,0.8918671713974224,1.341858445756925,0.5219347907398852,791.7582417582418,792.1611721611722,773.6263736263736,770,703.5164835164835,-0.474915,0.000854,0.884460,-0.822449,-5.727234,-7.312317,1,2,1,1,2,65.000000
2023-09-01 17:10:44.637,,,,,,,,,,,,,,,,,,,,,,,,,,,,,,,,,,,,,,/muse/elements/jaw_clench
2023-09-01 17:10:44.832,,,,,,,,,,,,,,,,,,,,,,,,,,,,,,,,,,,,,,/muse/elements/jaw_clench
2023-09-01 17:10:45.180,0.4030740938883993,0.3518926201566447,0.01994700579064981,0.2515125258244976,0.1090453409653833,0.179055106658435,0.1797135599863252,0.5731551602467683,0.7555319678115892,0.4031680313351291,0.7524347622590981,0.3181831199035391,0.7707602858969906,1.198066055207402,1.299901625921664,0.7404527721601565,0.6569527886161209,0.9460996262951626,1.108306362602132,0.5219347907398852,806.2637362637363,787.7289377289378,792.967032967033,747.4358974358975,719.2307692307693,-0.402222,0.033997,0.889954,-4.987030,-4.792633,-0.426178,1,2,1,1,2,65.000000
2023-09-01 17:10:45.937,,,,,,,,,,,,,,,,,,,,,,,,,,,,,,,,,,,,,,/muse/elements/jaw_clench
2023-09-01 17:10:46.134,,,,,,,,,,,,,,,,,,,,,,,,,,,,,,,,,,,,,,/muse/elements/jaw_clench
2023-09-01 17:10:46.189,0.4030740938883993,0.3650285112102984,-0.006279420693925298,0.8767549439807681,0.1090453409653833,0.5830147072221951,-0.03359258973146118,0.5227388965525874,0.7555319678115892,0.2567778657899732,0.69991778479808,0.5093825055418048,0.7707602858969906,1.045339746840635,1.288475112325902,0.8582091320697685,0.6569527886161209,1.07805102233103,1.190048431026751,0.6598198383185141,591.0989010989011,790.952380952381,814.7252747252747,727.2893772893773,712.7838827838829,-0.362976,0.047668,0.909302,-0.052338,-4.680481,-0.792542,1,1,1,1,1,65.000000
2023-09-01 17:10:46.463,,,,,,,,,,,,,,,,,,,,,,,,,,,,,,,,,,,,,,/muse/elements/jaw_clench
2023-09-01 17:10:46.749,,,,,,,,,,,,,,,,,,,,,,,,,,,,,,,,,,,,,,/muse/elements/jaw_clench
2023-09-01 17:10:47.181,0.4030740938883993,0.3065820489928328,0.2055679681872033,0.8730545524654143,0.1090453409653833,0.3772164191169891,0.08043043422329405,0.4387903590051973,0.7555319678115892,0.3291809200972865,0.531361831579783,0.7757932921745867,0.7707602858969906,1.033411179864088,1.301493109428136,0.884989377787238,0.6569527886161209,1.047921293027511,1.194648511082878,0.889146826002131,713.992673992674,776.4468864468864,785.7142857142858,737.7655677655678,643.0769230769231,-0.388367,0.013245,0.908447,4.164581,-4.934692,-3.596344,1,1,1,1,1,65.000000
2023-09-01 17:10:48.181,0.6906302166400218,0.1118955157971782,0.2055679681872033,1.051374839787853,0.3933880689377008,-0.1259392326532399,0.08043043422329405,0.6528341944873733,0.6722705289827001,0.05598911688011086,0.531361831579783,0.8454874338334221,0.8830909170319732,1.078772932000609,1.301493109428136,0.854925910495056,0.6989476416466003,0.7831092051774333,1.194648511082878,0.7108183895409377,744.6153846153846,799.4139194139194,794.5787545787546,738.974358974359,674.1025641025641,-0.357056,-0.005249,0.929138,1.547699,-4.172058,-0.523376,1,1,1,1,1,65.000000
2023-09-01 17:10:48.918,,,,,,,,,,,,,,,,,,,,,,,,,,,,,,,,,,,,,,/muse/elements/jaw_clench
2023-09-01 17:10:49.194,0.6777459325505713,0.2943819493177109,0.1940712313664409,0.7869121813858314,0.6582772004290185,-0.1615982799339736,0.2725995227186776,0.8342931339017838,0.7606426000122928,0.14588413905697,0.3310883095942873,0.7497737951385496,0.6833524965104442,1.115344766161555,1.128868307478293,0.7957289616490147,0.4576645751514409,0.8980952486847447,0.9635480219392316,0.5342982472043227,600.3663003663004,805.8608058608058,740.5860805860806,711.1721611721612,696.2637362637363,-0.370117,0.012512,0.922180,0.919647,-2.669220,1.966400,1,1,1,1,1,65.000000
2023-09-01 17:10:49.706,,,,,,,,,,,,,,,,,,,,,,,,,,,,,,,,,,,,,,/muse/elements/jaw_clench
2023-09-01 17:10:50.120,,,,,,,,,,,,,,,,,,,,,,,,,,,,,,,,,,,,,,/muse/elements/blink
2023-09-01 17:10:50.181,0.5901212351531557,0.2742998051736649,0.07766673166565589,0.8469256588116304,0.5533419326857836,-0.1177804368182844,0.1304217347675504,0.7286089204167321,0.7178529206564115,0.2129729924839731,0.3310883095942873,0.8623838571054817,0.6504547604326948,1.140157255768492,1.109252064377406,0.7573643501468006,0.6302725245296283,1.007902967074267,0.9728279168119947,0.5814830253185593,685.3846153846154,788.1318681318681,772.4175824175825,711.1721611721612,646.3003663003664,-0.362488,0.000366,0.929810,7.140350,-7.446899,-2.168274,1,1,1,1,1,65.000000
2023-09-01 17:10:51.181,0.688915041808401,0.3091766567222161,-0.2660486975322848,0.9822328436028888,0.418070147539701,-0.1595803424674751,-0.3019975396658055,0.372219837850086,0.5229819057829723,0.200306886264548,-0.06618942691540813,0.7400409523178915,0.5746405419829291,1.158640432605338,1.092386212011067,0.7818838228589825,0.6997630525934452,1.107063100749454,0.9491619888661703,0.7968955058513706,714.7985347985348,785.7142857142858,786.9230769230769,722.4542124542124,781.6849816849817,-0.365845,0.005127,0.924927,2.489777,-1.854248,-0.284119,1,1,1,1,1,65.000000
2023-09-01 17:10:52.180,0.8895639535433828,0.3651646987008499,-0.001802572722002836,0.8093096307674817,0.8163460490477271,0.04710770674634564,0.2889257474865315,0.564990074336935,0.7402036658434018,0.295409857787208,0.5596112429874013,0.7829238858235186,0.6739963946773329,1.105895690712224,1.106961491158356,0.7741833131759549,0.6644258273898165,1.001868459486582,1.087287994005805,0.6906780650200199,761.941391941392,796.996336996337,805.8608058608058,753.4798534798535,754.2857142857143,-0.351868,-0.004944,0.930481,1.054230,-2.018738,1.480408,1,1,1,1,1,65.000000
2023-09-01 17:10:52.839,,,,,,,,,,,,,,,,,,,,,,,,,,,,,,,,,,,,,,/muse/elements/blink
2023-09-01 17:10:53.168,,,,,,,,,,,,,,,,,,,,,,,,,,,,,,,,,,,,,,/muse/elements/blink
2023-09-01 17:10:53.181,0.8167888443351755,0.4175247738433174,0.00124191336265069,0.8642792186409451,0.6541981469820627,0.1877535189833706,0.1045567794363489,0.7274632765455241,0.7901478667104593,0.4619274550162929,0.7461629198278271,1.018077091738186,0.7528147614266031,1.20358065336237,1.103584307007025,0.805243045772626,0.6153762499674499,1.049909712256793,1.072560236331035,0.5516509575958228,644.6886446886447,777.6556776556777,789.3406593406594,703.5164835164835,631.7948717948718,-0.362366,0.000305,0.905640,2.444916,-2.721558,-1.764526,1,1,1,1,1,65.000000
2023-09-01 17:10:53.954,,,,,,,,,,,,,,,,,,,,,,,,,,,,,,,,,,,,,,/muse/elements/jaw_clench
2023-09-01 17:10:54.182,0.7035492069645841,0.3881350235794942,0.182606124027367,0.5575477349408244,0.5396979025270071,0.4876315213422897,0.03516027578225298,0.7890235790484179,0.762933987159732,0.6828749536806175,0.7234168073817427,1.018077091738186,0.826482482433638,1.215206415047133,1.096256105187796,0.8334602271913695,0.6978237641340698,0.9658584272656427,0.9801433323156765,0.6223322398308457,675.3113553113553,784.9084249084249,776.0439560439561,706.7399267399268,669.6703296703297,-0.365234,-0.002930,0.921204,0.755157,-3.065491,0.052338,1,1,1,1,1,65.000000
2023-09-01 17:10:54.194,,,,,,,,,,,,,,,,,,,,,,,,,,,,,,,,,,,,,,/muse/elements/jaw_clench
2023-09-01 17:10:55.181,0.5846030127219662,0.3245510634932259,0.05898406982649865,0.8674022517175685,0.511452233190074,0.130371296460205,0.1192050990983523,0.6982500157860567,0.463855363228069,0.1313118183557647,0.7341871126502065,1.008136975559682,0.7059121076932469,0.9867211987121371,1.335354389797462,0.7505487757346935,0.5935191543569076,0.8814831070982339,1.022549287021715,0.4221174513227114,597.948717948718,778.0586080586081,792.5641025641025,730.9157509157509,755.0915750915751,-0.349670,0.000793,0.926575,3.050537,-2.377625,-0.328979,1,1,1,1,1,65.000000
2023-09-01 17:10:55.279,,,,,,,,,,,,,,,,,,,,,,,,,,,,,,,,,,,,,,/muse/elements/blink
2023-09-01 17:10:56.181,0.5846030127219662,0.3344208755056701,0.05898406982649865,0.8680340725056584,0.511452233190074,0.1210867567622769,0.1192050990983523,0.9203261046636476,0.463855363228069,0.1268889791051203,0.7341871126502065,1.009777832110096,0.7059121076932469,0.8872477245218632,1.335354389797462,0.7786391701433205,0.5935191543569076,0.8301049726233054,1.022549287021715,0.5322020056862713,596.7399267399268,770,815.5311355311355,699.0842490842491,642.6739926739926,-0.339478,-0.000183,0.932312,5.480499,-4.261780,-2.631836,1,1,1,1,1,65.000000
2023-09-01 17:10:56.414,,,,,,,,,,,,,,,,,,,,,,,,,,,,,,,,,,,,,,/muse/elements/jaw_clench
2023-09-01 17:10:57.187,0.5846030127219662,0.3344208755056701,0.05898406982649865,1.003141429484881,0.511452233190074,0.1210867567622769,0.1192050990983523,0.8256274179142977,0.463855363228069,0.1268889791051203,0.7341871126502065,0.7582336992832714,0.7059121076932469,0.8872477245218632,1.335354389797462,1.011753952269724,0.5935191543569076,0.8301049726233054,1.022549287021715,0.591093771166627,675.3113553113553,824.3956043956044,738.1684981684982,744.2124542124542,728.0952380952381,-0.341125,-0.003235,0.931396,0.762634,-3.372040,-1.876678,1,1,1,1,1,65.000000
2023-09-01 17:10:57.612,,,,,,,,,,,,,,,,,,,,,,,,,,,,,,,,,,,,,,/muse/elements/blink
2023-09-01 17:10:58.157,,,,,,,,,,,,,,,,,,,,,,,,,,,,,,,,,,,,,,/muse/elements/blink
2023-09-01 17:10:58.193,0.5846030127219662,0.6279298989911041,0.05898406982649865,1.207124284118412,0.511452233190074,0.2371960838436061,0.1192050990983523,0.9778344110940378,0.463855363228069,0.3685274098616979,0.7341871126502065,0.9659224071574651,0.7059121076932469,1.086627421678356,1.335354389797462,0.9821275602340088,0.5935191543569076,0.9255953515328913,1.022549287021715,0.712221210092605,562.893772893773,782.4908424908425,786.1172161172161,695.0549450549451,809.4871794871796,-0.343628,0.010132,0.922913,2.340240,-3.162689,-2.056122,1,1,1,1,1,65.000000
2023-09-01 17:10:59.180,0.5846030127219662,0.676642049315231,0.05898406982649865,1.258464833742659,0.511452233190074,0.08803447575863421,0.1192050990983523,0.9465892090864401,0.463855363228069,0.3300550846728798,0.7341871126502065,0.9637113989869792,0.7059121076932469,0.998054365350923,1.335354389797462,0.9857762270078634,0.5935191543569076,0.611546411756707,1.022549287021715,0.7481270668606328,601.1721611721612,792.1611721611722,786.9230769230769,687.3992673992674,716.4102564102565,-0.326355,0.030640,0.930481,2.497253,-4.231873,2.646790,1,1,1,1,1,65.000000
2023-09-01 17:10:59.875,,,,,,,,,,,,,,,,,,,,,,,,,,,,,,,,,,,,,,/muse/elements/blink
2023-09-01 17:10:59.875,,,,,,,,,,,,,,,,,,,,,,,,,,,,,,,,,,,,,,/muse/elements/jaw_clench
2023-09-01 17:11:00.180,0.5846030127219662,0.6541212001429647,0.1337983231734972,1.258464833742659,0.511452233190074,0.3732514985559769,0.3385065683060832,0.9465892090864401,0.463855363228069,0.6298966684299244,0.3808552143746092,0.9637113989869792,0.7059121076932469,1.060615341430994,1.173261912028637,0.9857762270078634,0.5935191543569076,1.012680493983308,1.093152014955012,0.7481270668606328,593.1135531135532,772.014652014652,788.5347985347986,685.7875457875458,647.1062271062272,-0.344238,-0.004333,0.943542,0.119629,-4.770203,-3.880463,1,2,1,1,2,65.000000
2023-09-01 17:11:01.187,0.9700266957709318,-0.005904886427846745,-0.06512161486933861,1.258464833742659,0.7301577520948045,-0.4673989788404588,0.06077267121200871,0.9465892090864401,0.7972664565398615,0.5014363645994814,0.3083485442013653,0.9637113989869792,0.6292061035060558,1.061248859929316,1.349895050092393,0.9857762270078634,0.5433618158977804,1.02307567248063,1.401264965153116,0.7481270668606328,481.0989010989011,782.4908424908425,793.3699633699634,630.1831501831502,759.92673992674,-0.413818,0.024292,0.865540,3.656158,2.497253,-2.572021,1,1,1,1,1,65.000000
2023-09-01 17:11:01.371,,,,,,,,,,,,,,,,,,,,,,,,,,,,,,,,,,,,,,/muse/elements/blink
2023-09-01 17:11:01.612,,,,,,,,,,,,,,,,,,,,,,,,,,,,,,,,,,,,,,/muse/elements/blink
2023-09-01 17:11:01.612,,,,,,,,,,,,,,,,,,,,,,,,,,,,,,,,,,,,,,/muse/elements/jaw_clench
2023-09-01 17:11:01.811,,,,,,,,,,,,,,,,,,,,,,,,,,,,,,,,,,,,,,/muse/elements/jaw_clench
2023-09-01 17:11:02.181,0.9700266957709318,-0.0556771385073458,0.2351797633574828,1.258464833742659,0.7301577520948045,-0.3327199023663989,0.0911536292706522,0.9465892090864401,0.7972664565398615,0.5154408463159107,0.3991855254534297,0.9637113989869792,0.6292061035060558,0.9920076214771903,1.298666426662904,0.9857762270078634,0.5433618158977804,0.9052312084825406,1.328275547172495,0.7481270668606328,595.934065934066,775.2380952380953,793.7728937728938,711.978021978022,593.5164835164835,-0.356140,0.013000,0.932190,1.114044,-14.691925,-5.099182,1,1,1,1,1,65.000000
2023-09-01 17:11:03.181,0.9700266957709318,-0.01452499455767399,0.3490257743627463,1.258464833742659,0.7301577520948045,-0.1417569897234654,0.0458708274317132,0.9465892090864401,0.7972664565398615,0.2725194642678324,0.269470401743247,0.9637113989869792,0.6292061035060558,0.9406614697714794,1.275245945347856,0.9857762270078634,0.5433618158977804,0.7427586899255836,1.333148797586776,0.7481270668606328,720.8424908424909,772.014652014652,845.7509157509157,766.7765567765568,751.8681318681319,-0.274292,0.007874,0.948364,3.858032,-4.837494,-4.934692,1,2,1,1,2,65.000000
2023-09-01 17:11:04.181,0.9700266957709318,-0.01452499455767399,0.3490257743627463,1.258464833742659,0.7301577520948045,-0.1417569897234654,0.0458708274317132,0.9465892090864401,0.7972664565398615,0.2725194642678324,0.269470401743247,0.9637113989869792,0.6292061035060558,0.9406614697714794,1.275245945347856,0.9857762270078634,0.5433618158977804,0.7427586899255836,1.333148797586776,0.7481270668606328,641.0622710622711,805.4578754578755,797.3992673992674,767.1794871794872,685.3846153846154,-0.316711,0.014526,0.938660,1.151428,-3.947754,5.824432,1,2,1,1,2,65.000000
2023-09-01 17:11:04.836,,,,,,,,,,,,,,,,,,,,,,,,,,,,,,,,,,,,,,/muse/elements/jaw_clench
2023-09-01 17:11:05.180,0.9700266957709318,-0.01452499455767399,0.3490257743627463,1.258464833742659,0.7301577520948045,-0.1417569897234654,0.0458708274317132,0.9465892090864401,0.7972664565398615,0.2725194642678324,0.269470401743247,0.9637113989869792,0.6292061035060558,0.9406614697714794,1.275245945347856,0.9857762270078634,0.5433618158977804,0.7427586899255836,1.333148797586776,0.7481270668606328,864.2857142857143,790.5494505494506,810.2930402930403,778.4615384615385,713.1868131868132,-0.317993,0.009644,0.938293,-0.321503,-4.314117,4.179535,1,2,1,1,2,65.000000
2023-09-01 17:11:06.181,0.8028641703296231,0.08935720699295653,0.3270851540463188,0.8376912171190761,0.5448433275038981,0.2233310690021907,0.1906610990718609,0.4570401940895314,0.7347764182728841,0.5057252766466864,0.5253361349180506,0.8602729359159049,0.9118394069087009,1.100330197672433,1.185999922745698,0.8551823282788645,0.6360217547711607,0.8919869631752392,1.081841419821131,0.7093653352361198,787.7289377289378,803.8461538461539,809.4871794871796,757.1062271062272,757.1062271062272,-0.307495,0.009155,0.942383,3.514099,-0.216827,0.575714,1,1,1,1,1,65.000000
2023-09-01 17:11:06.756,,,,,,,,,,,,,,,,,,,,,,,,,,,,,,,,,,,,,,/muse/elements/blink
2023-09-01 17:11:07.180,0.828089879363838,0.4975236009803247,0.4380243833149143,0.7299359961703631,0.6508141796123859,0.4273481464337892,0.1930631381993254,0.3740287650335604,0.754473755977533,0.6222657899253132,0.600054065347859,0.7161459423991728,0.9100631625365548,1.036494440408411,1.300547330261587,0.8425294822800087,0.5711373123785451,0.8355187252299388,1.004226952153051,0.5950331577000251,877.985347985348,792.5641025641025,766.3736263736264,803.040293040293,726.0805860805862,-0.383911,0.022217,0.899658,-0.314026,-2.198181,1.779480,1,1,1,1,1,65.000000
2023-09-01 17:11:08.082,,,,,,,,,,,,,,,,,,,,,,,,,,,,,,,,,,,,,,/muse/elements/blink
2023-09-01 17:11:08.183,0.6489104694369773,0.1032014514057347,0.3515257743344024,-0.1020293059044356,0.633864749241397,0.1368260557619173,0.2394787656437482,0.3180347336892785,0.699142094594656,0.5324554425755568,0.5708969849265003,0.4625100251893954,0.7968095758476355,1.033889259530742,1.24211156054041,0.7907978817329906,0.4978464666665099,0.9434199351012202,1.082329762257617,0.5001153159759743,791.3553113553114,792.1611721611722,763.5531135531136,767.5824175824176,757.9120879120879,-0.383850,0.024414,0.911316,2.691650,-1.742096,0.725250,1,1,1,1,1,65.000000
2023-09-01 17:11:09.181,0.6489104694369773,0.1055233205651539,0.2472496641361663,-0.1020293059044356,0.633864749241397,-0.03268978156715709,0.211895539900629,0.3180347336892785,0.699142094594656,0.3779601719803617,0.5538172135039279,0.4625100251893954,0.7968095758476355,0.9412364407592045,1.316390542521041,0.7907978817329906,0.4978464666665099,1.000156041600166,0.9596690318145329,0.5001153159759743,893.6996336996338,817.5457875457876,809.0842490842491,816.7399267399268,855.0183150183151,-0.411377,0.027710,0.899658,4.964600,-1.076660,-3.484192,1,1,1,1,1,65.000000
2023-09-01 17:11:09.536,,,,,,,,,,,,,,,,,,,,,,,,,,,,,,,,,,,,,,/muse/elements/blink
2023-09-01 17:11:10.185,1.167123977118362,0.3402190531748039,0.1933122315220303,-0.1020293059044356,0.870102134343906,0.08378830347083607,0.07470649300324195,0.3180347336892785,0.8501794306696143,0.3638947732744559,0.3109473125706773,0.4625100251893954,0.6888311211619842,0.8590035110707875,1.355556217805209,0.7907978817329906,0.5623504742685169,0.9803432137848023,1.006734188146277,0.5001153159759743,778.4615384615385,786.9230769230769,796.1904761904763,757.5091575091575,749.4505494505495,-0.385071,0.022339,0.924316,5.091705,-4.381409,-9.682465,1,1,1,1,1,65.000000
2023-09-01 17:11:10.945,,,,,,,,,,,,,,,,,,,,,,,,,,,,,,,,,,,,,,/muse/elements/blink
2023-09-01 17:11:11.181,1.088989413894752,0.2434421722972101,0.1933122315220303,-0.1020293059044356,0.7756877319986627,0.2355385916775616,0.07470649300324195,0.3180347336892785,0.7654897172383934,0.6969770802040243,0.3109473125706773,0.4625100251893954,0.7242274747455576,1.237011287103148,1.355556217805209,0.7907978817329906,0.7084454942914996,1.225911718839988,1.006734188146277,0.5001153159759743,864.2857142857143,814.3223443223443,765.5677655677656,783.2967032967033,752.6739926739926,-0.387085,0.035034,0.903198,2.721558,-3.013153,-1.151428,1,1,1,1,1,65.000000
2023-09-01 17:11:12.183,1.059767817865594,0.366559127299904,0.1933122315220303,-0.1020293059044356,0.6713764776638779,0.005644387880960993,0.07470649300324195,0.3180347336892785,0.7440576675256673,0.5606527348264044,0.3109473125706773,0.4625100251893954,0.7308315710811516,1.045117664805171,1.355556217805209,0.7907978817329906,0.7626572256384787,1.170617458824903,1.006734188146277,0.5001153159759743,953.7362637362637,813.1135531135532,804.2490842490843,858.2417582417582,820.3663003663004,-0.344666,0.046021,0.915771,-0.493469,-5.914154,-0.306549,1,1,1,1,1,65.000000
2023-09-01 17:11:12.654,,,,,,,,,,,,,,,,,,,,,,,,,,,,,,,,,,,,,,/muse/elements/jaw_clench
2023-09-01 17:11:12.939,,,,,,,,,,,,,,,,,,,,,,,,,,,,,,,,,,,,,,/muse/elements/jaw_clench
2023-09-01 17:11:13.192,1.059767817865594,0.366559127299904,0.002202792850774117,1.000873995214934,0.6713764776638779,0.005644387880960993,0.2094486435467827,0.6129325859525674,0.7440576675256673,0.5606527348264044,0.4355494681399949,0.8978140930570717,0.7308315710811516,1.045117664805171,1.128243694578339,0.8326282451921397,0.7626572256384787,1.170617458824903,1.004537460753706,0.6636539649647726,852.6007326007326,780.0732600732601,800.2197802197802,794.5787545787546,889.6703296703297,-0.352173,0.047180,0.914429,-1.644897,-4.710388,2.654266,1,1,1,1,1,65.000000
2023-09-01 17:11:13.397,,,,,,,,,,,,,,,,,,,,,,,,,,,,,,,,,,,,,,/muse/elements/jaw_clench
2023-09-01 17:11:14.181,0.7314923600910134,0.1940642156350124,0.002202792850774117,0.8461159893631796,0.7431130558805402,0.3402228262655886,0.2094486435467827,0.5726024567044843,0.9179257863780401,0.5706463899311947,0.4355494681399949,0.950815156135612,0.7062588181678817,1.20543593142697,1.128243694578339,0.8099784109888216,0.7751660192628912,1.092311894125083,1.004537460753706,0.7341345448319266,936.8131868131868,788.5347985347986,799.0109890109891,844.9450549450549,886.0439560439561,-0.322388,0.019958,0.933960,3.626251,-2.863617,-0.695343,1,1,1,1,1,65.000000
2023-09-01 17:11:15.009,,,,,,,,,,,,,,,,,,,,,,,,,,,,,,,,,,,,,,/muse/elements/blink
2023-09-01 17:11:15.181,0.8014676444455968,0.5685932639432435,0.002202792850774117,0.8246839732100394,0.6375171676603231,0.4903340814149612,0.2094486435467827,0.7110857166715647,1.017393130618037,0.5706463899311947,0.4355494681399949,0.8673038428956296,0.7209034697333929,1.164013036259627,1.128243694578339,0.8331575970687691,0.7442754660205276,1.004304844906086,1.004537460753706,0.7168289554488184,1014.175824175824,819.5604395604396,785.7142857142858,861.4652014652015,907.8021978021978,-0.293762,0.031372,0.934875,2.624359,-5.495453,-0.254211,1,1,1,1,1,65.000000
2023-09-01 17:11:16.191,0.7539633391895256,0.7029048194470986,0.3219403211777183,0.9696056167721688,0.545377369161701,0.3999038330797187,0.2934816668803177,0.6189666794280686,1.020248892514257,0.5434113265897237,0.3790961574730911,0.8180279772469951,0.8953281813265588,1.05473782274705,1.036689571972561,0.8921165570635627,0.6295873254971091,0.9506889200417079,1.276341498713494,0.7393912158838647,966.6300366300367,794.5787545787546,809.8901098901099,850.1831501831502,854.6153846153846,-0.334412,0.021790,0.914856,-0.089722,-3.566437,-3.282318,1,1,1,1,1,65.000000
2023-09-01 17:11:16.933,,,,,,,,,,,,,,,,,,,,,,,,,,,,,,,,,,,,,,/muse/elements/blink
2023-09-01 17:11:17.022,,,,,,,,,,,,,,,,,,,,,,,,,,,,,,,,,,,,,,/muse/elements/jaw_clench
2023-09-01 17:11:17.188,0.8370721931705634,0.5873327433019015,0.1506900081848946,1.009823518135249,0.5897781661473807,0.03361367485668234,0.3051808416031851,0.5132649266438757,0.669718458302149,0.5339671902714728,0.7957792984121684,1.017609715566087,0.7386447670931776,1.057424462176431,1.166250556883041,0.8557297381729767,0.6824273075908115,0.9625545441593644,1.226143303336754,0.7253610647975933,1093.150183150183,774.4322344322345,778.0586080586081,874.3589743589744,936.007326007326,-0.331360,0.008301,0.936584,-3.566437,-8.067474,9.749756,1,1,1,1,1,65.000000
2023-09-01 17:11:18.181,0.8370721931705634,0.5873327433019015,-0.2029286213384797,1.207489042655023,0.5897781661473807,0.03361367485668234,0.1318425043289748,0.6877346524096128,0.669718458302149,0.5339671902714728,0.6442985729475921,1.017609715566087,0.7386447670931776,1.057424462176431,1.206896706377638,0.5578267946340265,0.6824273075908115,0.9625545441593644,1.126593891326484,0.6861859732988462,994.0293040293041,784.1025641025641,840.1098901098901,886.8498168498169,879.5970695970697,-0.339966,0.038269,0.932190,1.914062,-3.596344,-2.063599,1,1,1,1,1,65.000000
2023-09-01 17:11:18.424,,,,,,,,,,,,,,,,,,,,,,,,,,,,,,,,,,,,,,/muse/elements/blink
2023-09-01 17:11:18.424,,,,,,,,,,,,,,,,,,,,,,,,,,,,,,,,,,,,,,/muse/elements/jaw_clench
2023-09-01 17:11:19.181,0.8370721931705634,0.5873327433019015,-0.2029286213384797,1.207489042655023,0.5897781661473807,0.03361367485668234,0.1318425043289748,0.6877346524096128,0.669718458302149,0.5339671902714728,0.6442985729475921,1.017609715566087,0.7386447670931776,1.057424462176431,1.206896706377638,0.5578267946340265,0.6824273075908115,0.9625545441593644,1.126593891326484,0.6861859732988462,977.9120879120879,805.0549450549451,823.1868131868132,837.6923076923077,850.5860805860806,-0.321838,0.033020,0.928284,4.441223,4.501038,-9.076843,1,1,1,1,1,65.000000
2023-09-01 17:11:19.366,,,,,,,,,,,,,,,,,,,,,,,,,,,,,,,,,,,,,,/muse/elements/blink
2023-09-01 17:11:20.181,0.8370721931705634,0.5873327433019015,-0.2029286213384797,1.207489042655023,0.5897781661473807,0.03361367485668234,0.1318425043289748,0.6877346524096128,0.669718458302149,0.5339671902714728,0.6442985729475921,1.017609715566087,0.7386447670931776,1.057424462176431,1.206896706377638,0.5578267946340265,0.6824273075908115,0.9625545441593644,1.126593891326484,0.6861859732988462,946.8864468864469,789.3406593406594,751.8681318681319,883.2234432234433,828.8278388278388,-0.320923,0.054077,0.931763,4.979553,-4.822540,-2.220612,1,2,1,1,2,65.000000
2023-09-01 17:11:20.998,,,,,,,,,,,,,,,,,,,,,,,,,,,,,,,,,,,,,,/muse/elements/blink
2023-09-01 17:11:21.181,0.8436311301980955,0.01338169089496112,-0.2029286213384797,0.4297047437214379,0.5696972200285026,-0.1996481059472562,0.1318425043289748,0.2975763131288057,0.4739661330908312,0.09687109203296365,0.6442985729475921,0.6142835929606757,0.7182184169261382,1.002597651413706,1.206896706377638,0.8346267559237899,0.4482367822344616,1.065445352601361,1.126593891326484,0.4947943077094232,942.4542124542124,837.6923076923077,796.996336996337,889.6703296703297,1044.798534798535,-0.360779,0.050781,0.944153,0.179443,-4.209442,-0.014954,1,1,1,1,1,65.000000
2023-09-01 17:11:22.188,0.9082714058024685,0.2827996621003054,0.6468068859507311,0.3633405665234652,0.4768562461471745,0.2634697001831807,0.08170433737592329,0.3138455489814443,0.1758031749007495,0.4567935178174635,0.5634373812865261,0.6142835929606757,0.7786285035268738,1.010804274343186,0.9778061282307264,0.8327231326133238,0.5032782201433434,1.062280277751008,1.092478327701741,0.5224620221174354,1048.827838827839,834.0659340659341,809.4871794871796,894.1025641025641,885.2380952380953,-0.458618,0.067383,0.869019,-4.628143,-0.852356,4.209442,1,1,1,1,1,65.000000
2023-09-01 17:11:23.180,0.603659208710657,0.5327879889885847,0.526973088639392,0.6717811265803849,0.6810241981358044,0.3244988667282913,0.2808930991820207,0.6702886152779022,0.9332597390635154,0.4204942547731258,0.3118060623170249,0.9674099774551921,0.8977017073027238,1.12666613675045,1.276877951940124,0.8174130670641768,0.596887696119234,0.8850931706006144,1.252605702721872,0.594732449662709,990.4029304029305,812.7106227106227,810.2930402930403,884.4322344322345,875.5677655677656,-0.435547,0.081848,0.887695,6.781464,-4.553375,-5.413208,1,1,1,1,1,65.000000
2023-09-01 17:11:23.448,,,,,,,,,,,,,,,,,,,,,,,,,,,,,,,,,,,,,,/muse/elements/blink
2023-09-01 17:11:24.180,0.6559923737903143,0.4422637196977733,0.1951543190203046,0.6300797379449584,0.6791195223316275,0.1367087379362603,0.09129984565174544,0.3086918724538404,0.7490443865332331,0.2542808238687974,0.1810573919694187,0.9117031557048419,0.909814347171072,1.143288891263026,1.157195391667478,0.9108093335185783,0.5094655581002063,0.9502845677803546,1.150634089007583,0.5203166043009764,882.4175824175825,811.9047619047619,773.2234432234433,846.5567765567765,881.2087912087912,-0.487854,0.034790,0.873352,-1.689758,-2.100983,5.831909,1,1,1,1,1,65.000000
2023-09-01 17:11:25.191,0.6238154159694747,0.453041529265729,0.07827975617858111,0.2926188016565837,0.75242973726398,0.4523140320825759,-0.02904987178903912,0.4730856829036481,1.020812372052893,0.1851449650878108,0.3477002199536967,0.4814683733948347,0.8168019970353736,1.138898467647742,1.174549451488291,0.8267941100782961,0.3849427475712722,0.9813283229535554,1.097807290156418,0.2585863381720436,979.92673992674,812.7106227106227,836.0805860805862,864.2857142857143,873.5531135531136,-0.436279,0.043640,0.865479,4.022522,-7.588959,-6.759033,1,1,1,1,1,65.000000
2023-09-01 17:11:25.641,,,,,,,,,,,,,,,,,,,,,,,,,,,,,,,,,,,,,,/muse/elements/blink
2023-09-01 17:11:26.180,0.7723423335029445,0.5846555228959917,0.1414089165781766,0.9586010577804448,0.8845490226655078,0.5969964595845488,-0.04208966665699341,0.5673543431637066,1.016962102188973,0.1585091393024468,0.2794806315201789,0.7112888527561991,0.8662135321373333,1.178421310314372,1.231070848499669,0.8347638892529808,0.3612194368540753,1.017840919323943,1.041921311578294,0.4284863124449095,909.8168498168499,792.1611721611722,801.8315018315019,865.8974358974359,931.1721611721612,-0.405029,0.055481,0.913818,5.301056,-7.947845,-1.906586,1,1,1,1,1,65.000000
2023-09-01 17:11:27.184,0.7723423335029445,0.5846555228959917,0.2959334978204486,0.9352105878261862,0.8845490226655078,0.5969964595845488,0.1931398179197502,0.5487430607584813,1.016962102188973,0.1585091393024468,0.350816647628737,0.6383484018010019,0.8662135321373333,1.178421310314372,1.173392684120624,0.740052123782348,0.3612194368540753,1.017840919323943,1.177837721757758,0.5433781499080472,818.3516483516484,792.1611721611722,790.952380952381,837.2893772893773,1011.355311355311,-0.354919,0.045959,0.922424,1.727142,-2.392578,1.099091,1,1,1,1,1,65.000000
2023-09-01 17:11:28.181,0.7723423335029445,0.5846555228959917,0.6574699185911624,1.267459556123502,0.8845490226655078,0.5969964595845488,0.6029637235031322,0.9782476590757628,1.016962102188973,0.1585091393024468,0.7349236966244018,1.194885534658479,0.8662135321373333,1.178421310314372,1.226732581780908,0.7004593209820777,0.3612194368540753,1.017840919323943,1.149060574800609,0.5036251815786084,938.4249084249085,787.7289377289378,811.9047619047619,881.2087912087912,865.8974358974359,-0.345703,0.057556,0.918274,0.859833,-2.437439,-2.407532,1,1,1,1,1,65.000000
2023-09-01 17:11:28.600,,,,,,,,,,,,,,,,,,,,,,,,,,,,,,,,,,,,,,/muse/elements/blink
2023-09-01 17:11:29.181,0.7723423335029445,0.7306399259339246,0.4241713223755974,1.393477874330914,0.8845490226655078,0.3903178983810597,0.3521214878215234,1.055141620656586,1.016962102188973,0.4235984625919246,0.6509521879257704,1.220450971998011,0.8662135321373333,0.8147134167021057,0.9397978437516152,0.720866570357806,0.3612194368540753,0.955767055187044,1.045388924499095,0.5949728930382667,877.5824175824176,811.9047619047619,768.3882783882784,849.7802197802198,859.8534798534798,-0.402100,0.079041,0.897888,2.385101,1.300964,1.405640,1,1,1,1,1,65.000000
2023-09-01 17:11:30.181,0.7723423335029445,0.7354732259422068,-0.117968293739073,1.032285508053128,0.8845490226655078,0.4456439978105128,-0.1949377861783064,0.9418727052060303,1.016962102188973,0.3919616427028768,0.2034366421605862,1.080805354222724,0.8662135321373333,0.8339764112154249,1.231506301506191,0.61745528037043,0.3612194368540753,0.907540140932621,0.8323019687884136,0.674051497530149,756.7032967032967,800.6227106227107,770.8058608058608,814.3223443223443,840.1098901098901,-0.414734,0.064575,0.875916,4.508514,-2.609406,-2.975769,1,1,1,1,1,65.000000
2023-09-01 17:11:31.181,0.9905721716096283,0.3335915047534969,-0.0725177754145933,0.694978634303785,0.7068923008439254,0.02534641487215559,0.09015795351832891,0.754635651911552,0.6066793350297467,0.2182610493099844,0.3046660663426825,0.7271527821020808,0.5116811344147761,1.044959436939448,1.347706516311769,0.5042311409616914,0.42485018690947,0.8124019152876196,0.9954133974110511,0.4749195596873086,885.6410256410256,805.0549450549451,817.1428571428571,854.6153846153846,847.3626373626374,-0.390503,0.047058,0.894287,3.917847,-7.125397,-10.273132,1,1,1,1,1,65.000000
2023-09-01 17:11:32.187,0.8207108721814931,0.4708536457179262,-0.05950099096589673,0.8323778971507938,0.6561446352143511,0.09582012728673345,0.1202144466135566,0.7778807886568783,0.6063419895289808,0.1930755193468208,0.3046660663426825,1.047955525117443,0.4198669332046738,1.060473635103251,1.36575142611536,0.742967514497642,0.4627157926653681,0.6893265933014689,1.035169061558219,0.5283627411307934,757.1062271062272,794.981684981685,836.8864468864469,798.6080586080586,759.5238095238095,-0.399658,0.071045,0.904297,4.770203,-2.310333,-4.329071,1,1,1,1,1,65.000000
2023-09-01 17:11:33.187,0.8207108721814931,0.4708536457179262,-0.05950099096589673,0.8923128394589195,0.6561446352143511,0.09582012728673345,0.1202144466135566,0.7191627409980587,0.6063419895289808,0.1930755193468208,0.3046660663426825,1.143317049429448,0.4198669332046738,1.060473635103251,1.36575142611536,0.7776060817135616,0.4627157926653681,0.6893265933014689,1.035169061558219,0.5717990904082388,665.2380952380953,780.8791208791209,786.1172161172161,745.0183150183151,801.025641025641,-0.380371,0.059143,0.917480,2.579498,-6.736603,1.936493,1,1,1,1,1,65.000000
2023-09-01 17:11:34.000,,,,,,,,,,,,,,,,,,,,,,,,,,,,,,,,,,,,,,/muse/elements/blink
2023-09-01 17:11:34.187,0.8207108721814931,0.694850705472052,-0.05950099096589673,0.8842788549766269,0.6561446352143511,0.2601711037932714,0.1202144466135566,0.446605409744849,0.6063419895289808,-0.05717611417599404,0.3046660663426825,1.126628620103856,0.4198669332046738,0.8448340290630491,1.36575142611536,0.8707189684104871,0.4627157926653681,0.897150078601745,1.035169061558219,0.6381921684809282,784.5054945054945,757.1062271062272,820.3663003663004,810.6959706959707,820.3663003663004,-0.353699,0.058594,0.913025,4.358978,-1.592560,-3.723450,1,1,1,1,1,65.000000
2023-09-01 17:11:35.184,0.903469386312871,0.4059600759308147,-0.05950099096589673,0.9308059668046439,0.6868677585003486,0.09278037981680855,0.1202144466135566,0.4815964806174274,0.9692228615931473,0.3513914960372533,0.3046660663426825,0.8885923485714681,0.5841754919602964,0.9867321495753248,1.36575142611536,0.8101282386469036,0.5188908805801926,0.9584198969001271,1.035169061558219,0.6382584954735563,657.5824175824176,785.7142857142858,784.1025641025641,779.6703296703297,876.3736263736264,-0.374146,0.055359,0.917542,1.054230,-3.992615,-0.381317,1,1,1,1,1,65.000000
2023-09-01 17:11:35.633,,,,,,,,,,,,,,,,,,,,,,,,,,,,,,,,,,,,,,/muse/elements/blink
2023-09-01 17:11:36.180,0.6842995415009947,0.5781499031295319,0.8164936070949352,0.9308059668046439,0.5830845172567759,0.244553386963223,0.6312178811026631,0.4815964806174274,0.7344244628629382,0.4480693936700443,0.6256856797607576,0.8885923485714681,0.4595214818326647,0.8731899411602971,1.220646533702522,0.8101282386469036,0.4762803999073173,0.8220193679665856,1.049900297190986,0.6382584954735563,596.3369963369963,764.3589743589744,800.2197802197802,721.6483516483516,683.7728937728938,-0.326965,0.062317,0.914062,6.160889,-3.708496,-4.478607,1,1,1,1,1,65.000000
2023-09-01 17:11:36.939,,,,,,,,,,,,,,,,,,,,,,,,,,,,,,,,,,,,,,/muse/elements/blink
2023-09-01 17:11:37.190,0.7623668538098981,0.5997753876499308,-0.1421007275052415,0.9371527006446996,0.5895700443191192,0.2995687656068859,0.08638167190868624,1.001464645860474,0.7217908185264459,0.7147621802283102,0.3147843631014953,0.6698980782499884,0.4305026558061052,0.9315892995807643,1.245847226145542,0.6480079162951086,0.440705169681647,0.5495661047135066,1.192623378763839,0.5525015255136884,647.9120879120879,785.7142857142858,793.7728937728938,766.3736263736264,705.934065934066,-0.316101,0.091797,0.924194,1.428070,-9.734802,-5.413208,1,1,1,1,1,65.000000
2023-09-01 17:11:37.224,,,,,,,,,,,,,,,,,,,,,,,,,,,,,,,,,,,,,,/muse/elements/jaw_clench
2023-09-01 17:11:38.181,,,,,,,,,,,,,,,,,,,,,,,,,,,,,,,,,,,,,,/muse/elements/blink
2023-09-01 17:11:38.196,1.055354029684966,0.5632050904678813,-0.1878203501244807,0.990403206569009,0.9537479685503844,0.2243406286289356,0.09936405273663279,0.7448611897695872,1.096038082072357,0.8324956881194441,0.212853191624955,0.8207785063176921,0.6972867967862767,1.05578535140506,1.110170483634961,0.6912441504455064,0.7219525243474837,0.6982268633206009,1.305610446511943,0.6947508919775862,548.3882783882784,779.6703296703297,803.8461538461539,724.0659340659341,736.1538461538462,-0.409058,0.025146,0.879944,-3.940277,-2.048645,-6.998291,1,1,1,1,1,65.000000
2023-09-01 17:11:39.181,0.8817765227083685,0.4927798486235747,-0.1878203501244807,0.9515043319660506,0.8751297621676941,0.4804227835987036,0.09936405273663279,0.682761155136858,0.7610864420990076,0.4538271812427295,0.212853191624955,0.8793905827541159,0.6690579784285283,0.9523155177012622,1.110170483634961,0.711986606626912,0.8390456082678032,0.658567729201012,1.305610446511943,0.547881483316385,610.0366300366301,785.3113553113553,789.7435897435897,699.8901098901099,705.1282051282052,-0.371948,-0.036133,0.907776,0.560760,-3.865509,1.876678,1,1,1,1,1,65.000000
2023-09-01 17:11:39.662,,,,,,,,,,,,,,,,,,,,,,,,,,,,,,,,,,,,,,/muse/elements/blink
2023-09-01 17:11:40.181,0.8304511571059716,0.5847927211430782,-0.1878203501244807,0.9002653714376642,0.9154133132731098,0.6779356454909448,0.09936405273663279,0.8947501524819856,0.6145826146608215,0.3615429274317128,0.212853191624955,0.8793905827541159,0.6690681314254668,0.8241161708234893,1.110170483634961,0.6990158319606823,0.9375749408119124,0.664029070872969,1.305610446511943,0.2990163887995557,593.1135531135532,784.9084249084249,840.1098901098901,724.0659340659341,703.5164835164835,-0.356262,0.035339,0.922791,4.471130,-3.259888,2.041168,1,1,1,1,1,65.000000
2023-09-01 17:11:40.974,,,,,,,,,,,,,,,,,,,,,,,,,,,,,,,,,,,,,,/muse/elements/blink
2023-09-01 17:11:41.180,0.9018119345920839,0.5847927211430782,-0.1878203501244807,0.6480592503815691,0.5594824460406631,0.6779356454909448,0.09936405273663279,0.6342316987965181,0.6853182196026064,0.3615429274317128,0.212853191624955,0.8350998974747539,0.7530363656355871,0.8241161708234893,1.110170483634961,0.8576934830260854,0.4822133123191453,0.664029070872969,1.305610446511943,0.5098920544234837,552.8205128205128,815.1282051282052,799.0109890109891,707.5457875457876,787.3260073260074,-0.383179,0.066284,0.901245,6.751556,-4.344025,-4.620667,1,1,1,1,1,65.000000
2023-09-01 17:11:42.192,1.380767371765435,0.5847927211430782,-0.1878203501244807,0.5381299493425704,0.6660722677789501,0.6779356454909448,0.09936405273663279,0.2680544740984486,0.7942135443141277,0.3615429274317128,0.212853191624955,0.7171245107182633,0.8259951615404134,0.8241161708234893,1.110170483634961,0.8637947217547096,0.5250446408135763,0.664029070872969,1.305610446511943,0.5098724317569752,637.4358974358975,797.3992673992674,796.1904761904763,774.8351648351648,998.8644688644689,-0.374329,0.043152,0.901306,2.549591,-7.080536,-2.385101,1,1,1,1,1,65.000000
2023-09-01 17:11:42.701,,,,,,,,,,,,,,,,,,,,,,,,,,,,,,,,,,,,,,/muse/elements/blink
2023-09-01 17:11:43.181,1.403330214859317,0.5847927211430782,-0.1878203501244807,0.5381299493425704,0.7144235750650157,0.6779356454909448,0.09936405273663279,0.2680544740984486,0.7883283741306306,0.3615429274317128,0.212853191624955,0.7171245107182633,0.8488878359020361,0.8241161708234893,1.110170483634961,0.8637947217547096,0.5494525604103173,0.664029070872969,1.305610446511943,0.5098724317569752,724.0659340659341,780.4761904761905,779.6703296703297,744.2124542124542,592.3076923076924,-0.418701,0.051636,0.902771,-3.820648,-1.286011,8.605804,1,1,1,1,1,65.000000
2023-09-01 17:11:44.171,,,,,,,,,,,,,,,,,,,,,,,,,,,,,,,,,,,,,,/muse/elements/blink
2023-09-01 17:11:44.181,0.4257307728134124,0.5950456104909149,-0.1878203501244807,0.9510267303757196,0.3359671082730573,0.3783308359529189,0.09936405273663279,0.8590904275128334,0.7944602082967558,0.6716790766128657,0.212853191624955,0.4955781382627664,0.8635643004039559,1.045651041402809,1.110170483634961,0.9132094851403946,0.6282195141034231,0.8749306520479757,1.305610446511943,0.3218516163733197,652.3443223443223,809.4871794871796,823.992673992674,734.9450549450549,698.6813186813187,-0.386169,0.053406,0.896729,4.874878,0.291595,1.958923,1,1,1,1,1,65.000000
2023-09-01 17:11:45.137,,,,,,,,,,,,,,,,,,,,,,,,,,,,,,,,,,,,,,/muse/elements/blink
2023-09-01 17:11:45.181,0.3962110117552912,0.3192059995460096,-0.1878203501244807,0.8906751717429318,0.4481225852983745,0.2919658244838779,0.09936405273663279,0.7084391509807629,0.7570053894594855,0.6582202678133781,0.212853191624955,0.4707796539468927,0.8244059644439381,0.9728152600739692,1.110170483634961,0.8931196302099473,0.5768312595195911,0.9516759951250199,1.305610446511943,0.3531085654556917,590.6959706959707,799.0109890109891,808.2783882783883,754.2857142857143,661.6117216117216,-0.348572,0.038269,0.922852,4.321594,-4.112244,-8.172150,1,1,1,1,1,65.000000
2023-09-01 17:11:45.488,,,,,,,,,,,,,,,,,,,,,,,,,,,,,,,,,,,,,,/muse/elements/blink
2023-09-01 17:11:46.181,0.3962110117552912,0.2504712484594538,0.7095248381977756,0.8906751717429318,0.4481225852983745,0.2055567371580709,0.4042044474554609,0.7084391509807629,0.7570053894594855,0.5157240266985202,0.77334310898603,0.4707796539468927,0.8244059644439381,0.7844163432775838,1.193345786924676,0.8931196302099473,0.5768312595195911,1.027447933202666,1.186665503053154,0.3531085654556917,766.3736263736264,782.893772893773,807.8754578754579,739.7802197802198,707.948717948718,-0.378906,0.030334,0.907898,1.786957,-2.377625,-0.463562,1,1,1,1,1,65.000000
2023-09-01 17:11:47.182,0.3962110117552912,0.09461985409948148,0.3743497950103667,0.8906751717429318,0.4481225852983745,-0.1627531643374319,0.1547146585748911,0.7084391509807629,0.7570053894594855,0.4364585275799743,0.6181672666557374,0.4707796539468927,0.8244059644439381,0.9864643159682445,1.11689113281529,0.8931196302099473,0.5768312595195911,0.6478254393758949,1.13716820239953,0.3531085654556917,696.2637362637363,790.1465201465202,799.4139194139194,725.6776556776557,611.2454212454213,-0.432129,0.030029,0.893982,1.360779,-1.659851,-3.738403,1,2,1,1,2,65.000000
2023-09-01 17:11:47.212,,,,,,,,,,,,,,,,,,,,,,,,,,,,,,,,,,,,,,/muse/elements/blink
2023-09-01 17:11:47.997,,,,,,,,,,,,,,,,,,,,,,,,,,,,,,,,,,,,,,/muse/elements/blink
2023-09-01 17:11:48.182,0.3962110117552912,0.1836372118918658,0.1565149879889856,1.235370737952656,0.4481225852983745,0.1523445923133782,0.02397263740971085,1.433119827882044,0.7570053894594855,0.5626886452531349,0.6780685176229623,1.233829860943285,0.8244059644439381,1.009432764677622,1.025163825412786,0.8736811286972025,0.5768312595195911,0.8579578461265308,1.106523365167994,0.5343873327483565,740.5860805860806,786.1172161172161,776.4468864468864,754.6886446886447,697.0695970695971,-0.402405,0.015137,0.899902,1.472931,-4.022522,-0.299072,1,1,1,1,1,65.000000
2023-09-01 17:11:49.189,0.3962110117552912,-0.02261609877553321,0.3280157652787594,1.215623298910955,0.4481225852983745,0.1139814622221729,0.07965293612927056,1.461705808594964,0.7570053894594855,0.4612967250053397,0.6427505341409789,1.233829860943285,0.8244059644439381,0.9205073330189952,1.1234446494996,0.8889802139857346,0.5768312595195911,1.113662769004645,1.160242503764886,0.5636638320695777,574.1758241758242,798.6080586080586,784.9084249084249,710.7692307692308,701.5018315018315,-0.357361,0.026611,0.918701,2.280426,-6.773987,3.357086,1,1,1,1,1,65.000000
2023-09-01 17:11:49.833,,,,,,,,,,,,,,,,,,,,,,,,,,,,,,,,,,,,,,/muse/elements/blink
2023-09-01 17:11:50.180,0.5216155641978337,0.07364941075462896,0.2570356931556872,0.9342251114943867,0.4885125588997387,-0.05516244867135108,-0.06603281907412946,0.5737910955075701,0.6829742183318859,0.3067112353905821,0.4333415489768217,0.8386196340801731,0.6695708180266809,0.9758662023341198,1.065181055434867,0.827133068837832,0.3858223729673632,1.194743692800425,1.129036906602857,0.6760539388422162,686.1904761904763,838.0952380952381,776.0439560439561,754.2857142857143,908.2051282051282,-0.336487,0.003662,0.923401,1.241150,-2.018738,-2.923431,1,1,1,1,1,65.000000
2023-09-01 17:11:50.336,,,,,,,,,,,,,,,,,,,,,,,,,,,,,,,,,,,,,,/muse/elements/blink
2023-09-01 17:11:51.181,0.6510971769105903,0.07364941075462896,0.2570356931556872,0.9986788857494666,0.3197749637249636,-0.05516244867135108,-0.06603281907412946,0.5471594583782451,0.5843048186365883,0.3067112353905821,0.4333415489768217,0.7534139380534033,0.6552795289584935,0.9758662023341198,1.065181055434867,0.7095656197704768,0.323941704040192,1.194743692800425,1.129036906602857,0.5713402059081268,760.7326007326008,799.4139194139194,795.3846153846154,760.7326007326008,701.5018315018315,-0.299316,0.011108,0.943787,0.942078,-4.433746,0.747681,1,1,1,1,1,65.000000
2023-09-01 17:11:52.180,0.9269228915944142,0.6589492169236721,0.7264512943653963,0.3802977428418377,0.3522003825335829,0.07861698359295413,0.3941611162414943,0.4563375191027659,0.6255037129987572,0.2646567936109934,0.487470990295954,0.8015964246638188,0.7745902130369861,0.8178896627162358,1.073948109683382,0.7215848159171245,0.4127034393995617,0.6697587277322257,1.180220728601125,0.3309862655460608,600.3663003663004,781.6849816849817,775.6410256410256,711.5750915750916,571.7582417582418,-0.273621,0.003540,0.946411,0.216827,-1.794434,0.672913,1,1,1,1,1,65.000000
2023-09-01 17:11:53.184,0.5972621693916897,0.4974966763536269,0.6753127950908556,0.5711029383440304,0.5216532816729779,0.01958006888598228,0.391169170286479,0.6271420836674581,0.5024932178992327,0.3363931346533974,0.4844147834041821,0.7808047747412399,0.6970717128956628,0.8692046292028288,1.040513276780218,0.7339132418036119,0.5772700223785904,0.7734652405062715,1.166334412549918,0.3468258336019266,720.0366300366301,772.014652014652,752.6739926739926,769.5970695970697,832.0512820512821,-0.258789,0.005798,0.950256,2.699127,-0.957031,-5.637512,1,1,1,1,1,65.000000
2023-09-01 17:11:53.587,,,,,,,,,,,,,,,,,,,,,,,,,,,,,,,,,,,,,,/muse/elements/blink
2023-09-01 17:11:53.916,,,,,,,,,,,,,,,,,,,,,,,,,,,,,,,,,,,,,,/muse/elements/jaw_clench
2023-09-01 17:11:54.091,,,,,,,,,,,,,,,,,,,,,,,,,,,,,,,,,,,,,,/muse/elements/jaw_clench
2023-09-01 17:11:54.180,0.611046470310122,0.4713470327435956,0.6753127950908556,0.7466113415728513,0.6618349401412822,0.07431144545776626,0.391169170286479,0.7209373311672651,0.4612457095739393,0.2168276013882769,0.4844147834041821,0.4529529353972834,0.6827108389930955,0.9310592051595697,1.040513276780218,0.7878705435322133,0.6541727369266743,0.7573261103036376,1.166334412549918,0.4111695704793684,792.1611721611722,811.0989010989011,796.1904761904763,747.032967032967,716.4102564102565,-0.230652,-0.001709,0.962036,1.644897,-5.129089,-0.822449,1,1,1,1,1,65.000000
2023-09-01 17:11:54.986,,,,,,,,,,,,,,,,,,,,,,,,,,,,,,,,,,,,,,/muse/elements/blink
2023-09-01 17:11:55.180,0.611046470310122,0.5017778216556061,0.6753127950908556,0.7466113415728513,0.6618349401412822,0.139617946715214,0.391169170286479,0.7209373311672651,0.4612457095739393,0.12427933397244,0.4844147834041821,0.4529529353972834,0.6827108389930955,0.9514082484821342,1.040513276780218,0.7878705435322133,0.6541727369266743,0.7019829871935839,1.166334412549918,0.4111695704793684,905.3846153846154,786.9230769230769,836.8864468864469,812.3076923076924,765.5677655677656,-0.205444,0.002991,0.966736,5.121613,-0.000000,-8.785248,1,1,1,1,1,65.000000
2023-09-01 17:11:55.727,,,,,,,,,,,,,,,,,,,,,,,,,,,,,,,,,,,,,,/muse/elements/blink
2023-09-01 17:11:56.180,0.611046470310122,0.6316587227456257,0.6753127950908556,0.7466113415728513,0.6618349401412822,0.2896483547334981,0.391169170286479,0.7209373311672651,0.4612457095739393,0.5096619396613306,0.4844147834041821,0.4529529353972834,0.6827108389930955,0.8480597427558514,1.040513276780218,0.7878705435322133,0.6541727369266743,0.8085065645384873,1.166334412549918,0.4111695704793684,738.1684981684982,809.8901098901099,838.901098901099,757.9120879120879,950.9157509157509,-0.236206,0.027588,0.962097,2.856140,-4.979553,-0.643005,1,2,1,1,2,65.000000
2023-09-01 17:11:57.057,,,,,,,,,,,,,,,,,,,,,,,,,,,,,,,,,,,,,,/muse/elements/blink
2023-09-01 17:11:57.180,0.611046470310122,0.5583543688922612,0.6753127950908556,0.7466113415728513,0.6618349401412822,0.2761983972738922,0.391169170286479,0.7209373311672651,0.4612457095739393,0.6621857079611003,0.4844147834041821,0.4529529353972834,0.6827108389930955,0.8399558302225726,1.040513276780218,0.7878705435322133,0.6541727369266743,0.910179253250084,1.166334412549918,0.4111695704793684,870.7326007326008,792.1611721611722,821.978021978022,785.3113553113553,779.6703296703297,-0.243591,0.009460,0.956238,3.678589,-3.573914,-8.583374,1,2,1,1,2,65.000000
2023-09-01 17:11:57.427,,,,,,,,,,,,,,,,,,,,,,,,,,,,,,,,,,,,,,/muse/elements/jaw_clench
2023-09-01 17:11:57.668,,,,,,,,,,,,,,,,,,,,,,,,,,,,,,,,,,,,,,/muse/elements/jaw_clench
2023-09-01 17:11:58.180,0.611046470310122,0.488802973418456,0.6753127950908556,0.7466113415728513,0.6618349401412822,0.2930753273691996,0.391169170286479,0.7209373311672651,0.4612457095739393,0.694472802748611,0.4844147834041821,0.4529529353972834,0.6827108389930955,0.9749283928005956,1.040513276780218,0.7878705435322133,0.6541727369266743,0.9724233413531992,1.166334412549918,0.4111695704793684,733.3333333333334,815.5311355311355,784.9084249084249,757.1062271062272,684.1758241758242,-0.245117,-0.003174,0.954041,0.725250,-3.117828,0.971985,1,2,1,1,2,65.000000
2023-09-01 17:11:58.450,,,,,,,,,,,,,,,,,,,,,,,,,,,,,,,,,,,,,,/muse/elements/blink
2023-09-01 17:11:58.992,,,,,,,,,,,,,,,,,,,,,,,,,,,,,,,,,,,,,,/muse/elements/blink
2023-09-01 17:11:59.180,0.611046470310122,0.3956967157581309,0.6753127950908556,0.9286157245221214,0.6618349401412822,0.316165332805381,0.391169170286479,0.5489859219981122,0.4612457095739393,0.605948606845508,0.4844147834041821,0.4354488017872651,0.6827108389930955,0.8420178471797255,1.040513276780218,0.7718795114912401,0.6541727369266743,0.9181968893372923,1.166334412549918,0.4648170400704087,853.8095238095239,792.5641025641025,780.4761904761905,787.7289377289378,783.6996336996338,-0.267273,0.006653,0.943604,3.192596,-0.328979,-0.044861,1,1,1,1,1,60.000000
2023-09-01 17:12:00.111,,,,,,,,,,,,,,,,,,,,,,,,,,,,,,,,,,,,,,/muse/elements/blink
2023-09-01 17:12:00.191,0.611046470310122,0.4281760794799983,0.6753127950908556,1.050129719608249,0.6618349401412822,0.2250426801126404,0.391169170286479,0.6314076807001235,0.4612457095739393,0.4834474431845697,0.4844147834041821,0.3544612204472589,0.6827108389930955,0.9325571841298221,1.040513276780218,0.789471126726476,0.6541727369266743,0.851277038779965,1.166334412549918,0.517606501403403,742.6007326007326,796.1904761904763,814.7252747252747,749.047619047619,893.2967032967033,-0.291748,-0.013184,0.937012,-0.590668,2.243042,-11.103058,1,1,1,1,1,60.000000
2023-09-01 17:12:01.180,0.611046470310122,0.3913000498677478,0.6753127950908556,1.050129719608249,0.6618349401412822,-0.04426473550567681,0.391169170286479,0.6314076807001235,0.4612457095739393,0.2629411439860854,0.4844147834041821,0.3544612204472589,0.6827108389930955,0.9425648188689294,1.040513276780218,0.789471126726476,0.6541727369266743,0.9796292566240451,1.166334412549918,0.517606501403403,1104.835164835165,805.0549450549451,797.8021978021978,853.4065934065934,967.4358974358975,-0.269348,-0.037842,0.953125,-0.284119,-7.723541,0.912170,1,1,1,1,1,60.000000
2023-09-01 17:12:01.512,,,,,,,,,,,,,,,,,,,,,,,,,,,,,,,,,,,,,,/muse/elements/jaw_clench
2023-09-01 17:12:01.838,,,,,,,,,,,,,,,,,,,,,,,,,,,,,,,,,,,,,,/muse/elements/jaw_clench
2023-09-01 17:12:02.033,,,,,,,,,,,,,,,,,,,,,,,,,,,,,,,,,,,,,,/muse/elements/blink
2023-09-01 17:12:02.180,0.2365503881902468,-0.06809726183811611,0.6753127950908556,0.5289303106928055,0.3315370561922342,-0.1701216391983287,0.391169170286479,0.5248390378750101,0.5745709469607597,0.1313197559022068,0.4844147834041821,0.8267310496667021,0.5724859298611337,0.9088260716572414,1.040513276780218,0.7186651525202719,0.5969130152104295,0.9263858164440038,1.166334412549918,0.6123489666493555,894.1025641025641,786.1172161172161,802.2344322344322,765.9706959706959,879.5970695970697,-0.319580,-0.008118,0.930420,-0.224304,3.244934,-1.151428,1,1,1,1,1,60.000000
2023-09-01 17:12:02.317,,,,,,,,,,,,,,,,,,,,,,,,,,,,,,,,,,,,,,/muse/elements/blink
2023-09-01 17:12:03.044,,,,,,,,,,,,,,,,,,,,,,,,,,,,,,,,,,,,,,/muse/elements/blink
2023-09-01 17:12:03.187,0.2409882037888666,-0.07412598903530163,0.6753127950908556,0.6954068193492197,0.323974596793518,-0.2512368625384284,0.391169170286479,0.4967393303350554,0.5182803814081755,0.09096910177578034,0.4844147834041821,0.8168959556336524,0.5299855751562255,0.9571620676950556,1.040513276780218,0.7838679668240405,0.604248258289363,0.8379183435627769,1.166334412549918,0.6416494105141739,834.4688644688645,825.2014652014652,819.5604395604396,796.996336996337,727.2893772893773,-0.307617,-0.069153,0.928162,0.829926,-3.514099,0.889740,1,1,1,1,1,60.000000
2023-09-01 17:12:03.330,,,,,,,,,,,,,,,,,,,,,,,,,,,,,,,,,,,,,,/muse/elements/jaw_clench
2023-09-01 17:12:04.034,,,,,,,,,,,,,,,,,,,,,,,,,,,,,,,,,,,,,,/muse/elements/jaw_clench
2023-09-01 17:12:04.123,,,,,,,,,,,,,,,,,,,,,,,,,,,,,,,,,,,,,,/muse/elements/blink
2023-09-01 17:12:04.180,0.2409882037888666,-0.07412598903530163,0.6753127950908556,0.6954068193492197,0.323974596793518,-0.2512368625384284,0.391169170286479,0.4967393303350554,0.5182803814081755,0.09096910177578034,0.4844147834041821,0.8168959556336524,0.5299855751562255,0.9571620676950556,1.040513276780218,0.7838679668240405,0.604248258289363,0.8379183435627769,1.166334412549918,0.6416494105141739,926.7399267399268,753.8827838827839,827.6190476190476,863.0769230769231,782.893772893773,-0.475342,-0.021729,0.873962,-1.211243,20.635986,12.590942,1,1,1,1,1,60.000000
2023-09-01 17:12:05.180,0.2409882037888666,-0.07412598903530163,0.6753127950908556,0.6954068193492197,0.323974596793518,-0.2512368625384284,0.391169170286479,0.4967393303350554,0.5182803814081755,0.09096910177578034,0.4844147834041821,0.8168959556336524,0.5299855751562255,0.9571620676950556,1.040513276780218,0.7838679668240405,0.604248258289363,0.8379183435627769,1.166334412549918,0.6416494105141739,1079.85347985348,783.6996336996338,812.3076923076924,865.0915750915751,1046.813186813187,-0.476868,0.007629,0.875549,0.441132,0.037384,2.743988,1,2,1,1,2,60.000000
2023-09-01 17:12:05.348,,,,,,,,,,,,,,,,,,,,,,,,,,,,,,,,,,,,,,/muse/elements/blink
2023-09-01 17:12:06.190,0.2409882037888666,-0.07412598903530163,0.4317408392743515,0.6954068193492197,0.323974596793518,-0.2512368625384284,0.003148919221944977,0.4967393303350554,0.5182803814081755,0.09096910177578034,0.3117482926571566,0.8168959556336524,0.5299855751562255,0.9571620676950556,1.189585246048032,0.7838679668240405,0.604248258289363,0.8379183435627769,0.9022663929998012,0.6416494105141739,909.8168498168499,801.8315018315019,793.7728937728938,796.996336996337,776.8498168498169,-0.447510,0.030579,0.874084,5.674896,-8.635712,-3.768311,1,2,1,1,2,60.000000
2023-09-01 17:12:06.571,,,,,,,,,,,,,,,,,,,,,,,,,,,,,,,,,,,,,,/muse/elements/blink
2023-09-01 17:12:07.180,1.292386189774213,0.1950974375390541,0.447949786399145,1.037782947301033,1.005945565636557,0.2997671212540383,-0.0234217838544359,0.8890294328393362,0.9600579345477155,0.4822173407804467,0.1986642248450118,0.9487091625326185,1.095271478091631,1.034925646030834,1.185767293656905,0.9852588527202392,0.7462981803312974,0.8854102360717259,0.8354394412789805,0.5434937816886255,1056.886446886447,819.1575091575091,831.2454212454213,861.0622710622711,972.6739926739928,-0.370850,-0.011108,0.910400,4.254303,-15.230255,-13.361053,1,1,1,1,1,60.000000
2023-09-01 17:12:08.180,1.239628148926625,0.6129354062910158,0.447949786399145,0.9542110703445709,0.9530960019971504,0.5251452429866496,-0.0234217838544359,0.8317338183549738,0.9600579345477155,0.6114295348781124,0.1986642248450118,1.046538461441316,1.046523275030719,1.01130140901104,1.185767293656905,0.8590808936996134,0.7309612333822116,0.8556700055302979,0.8354394412789805,0.7107717054595636,1037.948717948718,804.2490842490843,815.934065934066,863.4798534798535,964.6153846153846,-0.411316,-0.025879,0.891968,-4.897308,-1.375732,22.011719,1,1,1,1,1,60.000000
2023-09-01 17:12:08.213,,,,,,,,,,,,,,,,,,,,,,,,,,,,,,,,,,,,,,/muse/elements/blink
2023-09-01 17:12:09.010,,,,,,,,,,,,,,,,,,,,,,,,,,,,,,,,,,,,,,/muse/elements/blink
2023-09-01 17:12:09.180,1.220623544465976,0.9399406015138835,0.447949786399145,0.8585252884102509,0.9350145062762891,0.798962289792133,-0.0234217838544359,0.5872279910092303,0.950096512400784,0.3920082045207647,0.1986642248450118,0.8496806170596046,1.013261241603388,1.041497392019632,1.185767293656905,0.8782908373908787,0.7248495075230145,0.8625755373594967,0.8354394412789805,0.8668361638122907,941.6483516483516,786.9230769230769,837.6923076923077,842.9304029304029,797.3992673992674,-0.241394,0.029358,0.957092,5.166473,-6.482391,-14.826508,1,1,1,1,1,60.000000
2023-09-01 17:12:09.839,,,,,,,,,,,,,,,,,,,,,,,,,,,,,,,,,,,,,,/muse/elements/blink
2023-09-01 17:12:10.125,,,,,,,,,,,,,,,,,,,,,,,,,,,,,,,,,,,,,,/muse/elements/blink
2023-09-01 17:12:10.180,1.220623544465976,0.9399406015138835,0.447949786399145,0.8585252884102509,0.9350145062762891,0.798962289792133,-0.0234217838544359,0.5872279910092303,0.950096512400784,0.3920082045207647,0.1986642248450118,0.8496806170596046,1.013261241603388,1.041497392019632,1.185767293656905,0.8782908373908787,0.7248495075230145,0.8625755373594967,0.8354394412789805,0.8668361638122907,923.1135531135532,784.1025641025641,799.4139194139194,848.1684981684982,852.1978021978023,-0.396484,0.008667,0.897156,4.889832,-2.714081,-3.581390,1,1,1,1,1,65.000000
2023-09-01 17:12:11.186,1.220623544465976,0.5887919615506872,0.447949786399145,0.8585252884102509,0.9350145062762891,0.3661391863679907,-0.0234217838544359,0.5872279910092303,0.950096512400784,0.3725902243361182,0.1986642248450118,0.8496806170596046,1.013261241603388,1.125958733064481,1.185767293656905,0.8782908373908787,0.7248495075230145,0.840066401663194,0.8354394412789805,0.8668361638122907,961.7948717948718,813.1135531135532,786.5201465201466,890.8791208791209,936.007326007326,-0.385864,0.020203,0.916443,1.114044,-5.846863,-3.790741,1,2,1,1,2,65.000000
2023-09-01 17:12:12.182,1.220623544465976,0.6819819264662773,0.1508372038564992,0.8936589654807783,0.9350145062762891,0.2502420424677355,-0.1124385331192208,0.8921506044854138,0.950096512400784,0.4016080566433015,0.456620091944657,0.8007340345720048,1.013261241603388,0.9588511034879335,1.042499841992697,0.6329638659432432,0.7248495075230145,0.8821934374693253,1.129608647986882,0.375554958592526,959.7802197802198,823.992673992674,802.2344322344322,850.1831501831502,836.0805860805862,-0.369263,0.026794,0.932373,3.013153,-6.893616,0.904694,1,1,1,1,1,65.000000
2023-09-01 17:12:13.180,1.220623544465976,0.09141878929502804,0.363545363916949,0.7672123230290311,0.9350145062762891,0.04877262689901675,0.05736457236776091,0.9209740403886355,0.950096512400784,0.3244944804750834,0.4749480717173375,0.8721329339525254,1.013261241603388,0.9394796544345243,1.069745387809947,0.7031340840501898,0.7248495075230145,0.8914090337079186,1.090947187063457,0.4461823930207874,845.7509157509157,804.6520146520147,794.981684981685,854.6153846153846,954.9450549450549,-0.349731,0.015015,0.925842,4.269257,-2.983246,0.269165,1,1,1,1,1,65.000000
2023-09-01 17:12:14.179,1.220623544465976,0.1562829068172914,0.2031123492123298,0.837094321413537,0.9350145062762891,-0.3052303061088661,0.1438202294326586,0.7598635023290862,0.950096512400784,0.4943291710233486,0.4994163737887278,0.5651049288639075,1.013261241603388,0.8692656658268636,1.176643964135668,0.6365439993091934,0.7248495075230145,0.8733676467995268,1.041459821894816,0.4142369038109787,930.3663003663004,809.0842490842491,805.4578754578755,846.959706959707,916.6666666666667,-0.357056,-0.015198,0.907166,-3.155212,-1.114044,1.330872,1,1,1,1,1,65.000000
2023-09-01 17:12:15.180,1.220623544465976,0.1597800676742732,0.1443146480785908,0.837094321413537,0.9350145062762891,0.09782297266024428,0.1083537921058314,0.7598635023290862,0.950096512400784,0.3683197820129448,0.493599556057365,0.5651049288639075,1.013261241603388,0.932283012401671,1.226328010113104,0.6365439993091934,0.7248495075230145,0.7999599965105523,0.949267255393675,0.4142369038109787,867.9120879120879,793.3699633699634,792.967032967033,862.6739926739926,777.2527472527473,-0.235291,0.036438,0.950378,12.007751,-15.364838,-18.991089,1,1,1,1,1,65.000000
2023-09-01 17:12:16.194,1.220623544465976,0.4481729557578382,-0.000239990311985146,0.837094321413537,0.9350145062762891,0.3717532663479507,0.04135203800918394,0.7598635023290862,0.950096512400784,0.3922674032596312,0.2306756353398887,0.5651049288639075,1.013261241603388,0.9014226227241908,1.227447865489065,0.6365439993091934,0.7248495075230145,0.8097568672938994,0.8546222882215275,0.4142369038109787,926.7399267399268,793.7728937728938,782.4908424908425,869.5238095238095,861.8681318681319,-0.210510,0.051758,0.957214,0.530853,2.444916,4.972076,1,2,1,1,2,65.000000
2023-09-01 17:12:16.464,,,,,,,,,,,,,,,,,,,,,,,,,,,,,,,,,,,,,,/muse/elements/blink
2023-09-01 17:12:17.063,,,,,,,,,,,,,,,,,,,,,,,,,,,,,,,,,,,,,,/muse/elements/blink
2023-09-01 17:12:17.180,1.220623544465976,0.7414718860023045,-0.000239990311985146,0.837094321413537,0.9350145062762891,0.564914890467666,0.04135203800918394,0.7598635023290862,0.950096512400784,0.3273884520282682,0.2306756353398887,0.5651049288639075,1.013261241603388,0.9415546102644733,1.227447865489065,0.6365439993091934,0.7248495075230145,0.8771255585755724,0.8546222882215275,0.4142369038109787,880,782.0879120879121,806.2637362637363,846.1538461538462,888.4615384615385,-0.347656,-0.005493,0.916687,1.330872,-0.643005,0.157013,1,2,1,1,2,65.000000
2023-09-01 17:12:18.180,0.7506633226420414,0.2795106808650401,-0.000239990311985146,0.7518641934785579,0.839651784647523,0.03246688812451578,0.04135203800918394,0.7125692267879327,0.3219507691688754,0.1975294027425265,0.2306756353398887,0.4909396723799808,0.7121579496474686,1.118860541309251,1.227447865489065,0.7060924355850637,0.4342418937120726,0.9346239277167742,0.8546222882215275,0.5780600920041309,830.4395604395604,802.2344322344322,794.981684981685,826.8131868131868,929.1575091575091,-0.337402,-0.003540,0.926636,2.071075,-4.463654,-1.166382,1,1,1,1,1,65.000000
2023-09-01 17:12:19.181,0.6767390485743867,0.07494771459196273,-0.01465854107672721,0.6811418200196194,0.7595890482704837,-0.1240488449680288,-0.07553545100238002,0.6072177740491231,0.6019933777615887,0.3012368079889132,0.5746623843718157,0.6255950886777556,0.6890249084566547,0.9754355434032088,1.198151103390067,0.6779343067821264,0.3981053099643465,0.9122238588693734,1.150567690117566,0.3956496670617133,937.2161172161173,757.1062271062272,815.1282051282052,872.3443223443223,848.1684981684982,-0.318542,0.031250,0.950378,3.596344,-7.768402,-2.901001,1,1,1,1,1,65.000000
2023-09-01 17:12:20.180,1.122243651549823,-0.07201473255114893,0.01149666149061457,0.8473653596952037,0.4856380475106333,-0.1494985673053061,0.0401770181341053,0.4090436620764626,0.6309500417399656,0.3928916370956633,0.7224266336760559,0.6728774453638884,0.7709578668728604,1.044774725437075,1.265327098240221,0.7043259831190251,0.5705964858890639,0.8118808693437952,1.057633409167507,0.2608523289965585,840.1098901098901,805.0549450549451,788.1318681318681,844.5421245421246,994.4322344322345,-0.387878,0.060608,0.913452,8.972168,-0.897217,-15.103149,1,1,1,1,1,60.000000
2023-09-01 17:12:21.181,1.112883077011348,0.1355116385680085,0.1157768767177318,1.078024407542154,0.655218468208114,-0.1164245372876667,0.04583298557941178,0.5391824310622219,0.8171934827428233,0.3247884546072155,0.7224266336760559,0.6447355262805231,0.6873867366379115,1.156608594534356,1.263151391965169,0.6807959714324276,0.5433732740118943,0.7544396582027936,1.134373746154242,0.365879228716176,777.2527472527473,791.3553113553114,836.8864468864469,812.7106227106227,731.7216117216118,-0.394226,-0.000732,0.910400,1.114044,-2.497253,1.188812,1,1,1,1,1,60.000000
2023-09-01 17:12:22.180,1.132175763889096,0.4261318691167593,0.1157768767177318,0.8671404796086589,0.7744030986810155,0.284690578623667,0.04583298557941178,0.3938259515062496,0.9228774921828112,0.1837203337998922,0.7224266336760559,0.5593975101113028,0.5731618546737343,0.9446863121887156,1.263151391965169,0.6981197658636569,0.2225882866024227,0.9990751493176409,1.134373746154242,0.4946813348990308,693.4432234432235,780.8791208791209,786.5201465201466,763.5531135531136,861.0622710622711,-0.447510,0.063354,0.877441,1.001892,4.044952,2.265472,1,1,1,1,1,60.000000
2023-09-01 17:12:22.643,,,,,,,,,,,,,,,,,,,,,,,,,,,,,,,,,,,,,,/muse/elements/blink
2023-09-01 17:12:23.180,1.178437479269034,0.5572829835767106,0.1157768767177318,1.037310059893521,0.299557950290309,0.4236652482632316,0.04583298557941178,0.9860796529268843,0.7427041528262491,0.3109775916451066,0.7224266336760559,0.9675900367315327,0.5992935390583312,1.01003247757162,1.263151391965169,0.8511362366243082,0.1395521970383836,0.8934213321359492,1.134373746154242,0.5961450798978726,792.967032967033,824.3956043956044,822.3809523809524,808.6813186813187,830.4395604395604,-0.493042,0.136902,0.826599,0.321503,2.310333,-7.267456,1,1,1,1,1,60.000000
2023-09-01 17:12:23.638,,,,,,,,,,,,,,,,,,,,,,,,,,,,,,,,,,,,,,/muse/elements/blink
2023-09-01 17:12:24.180,0.9937668559452851,0.4804665189677417,0.1157768767177318,1.023788030421999,1.187520675923094,0.4573479422001552,0.04583298557941178,1.071923926342446,1.056409023586638,0.2935060660138468,0.7224266336760559,1.1428473882213,0.7784123725224493,0.9920927719026505,1.263151391965169,0.8207471404242141,0.5725353994776606,0.8921510921332594,1.134373746154242,0.5981603680494753,680.5494505494506,807.0695970695971,810.6959706959707,760.3296703296703,706.3369963369963,-0.515747,0.161438,0.813416,3.693542,4.022522,0.919647,1,1,1,1,1,60.000000
2023-09-01 17:12:24.755,,,,,,,,,,,,,,,,,,,,,,,,,,,,,,,,,,,,,,/muse/elements/blink
2023-09-01 17:12:24.973,,,,,,,,,,,,,,,,,,,,,,,,,,,,,,,,,,,,,,/muse/elements/jaw_clench
2023-09-01 17:12:25.180,1.038105055027996,0.3173481499183812,0.1157768767177318,1.075308371471542,1.012294498879751,0.385680009675354,0.04583298557941178,0.844815281745718,1.13741220267512,0.2677863218087263,0.7224266336760559,1.127251173939945,0.89530717598593,1.020992862523826,1.263151391965169,0.7559288492712289,0.549179718407528,0.9682799264005475,1.134373746154242,0.598010729581127,819.1575091575091,802.6373626373627,817.1428571428571,813.5164835164835,854.6153846153846,-0.549622,0.127991,0.816406,-11.663818,2.945862,4.000092,1,1,1,1,1,60.000000
2023-09-01 17:12:26.183,0.975410050979111,0.7204361544113205,0.1157768767177318,1.166277203025248,0.8557668712525627,0.5244498179567963,0.04583298557941178,0.8599139531499932,1.046166650864506,0.4166839676525274,0.7224266336760559,0.7729542415307514,0.7995033748362287,0.938745203520636,1.263151391965169,0.9532791944035384,0.5543013866271079,0.9243692548675171,1.134373746154242,0.5420494083227257,726.8864468864469,813.1135531135532,803.040293040293,804.6520146520147,854.6153846153846,-0.529663,0.071533,0.833862,3.977661,-9.353485,-7.536621,1,1,1,1,1,60.000000
2023-09-01 17:12:27.188,0.9552196414161389,0.3916758485205185,0.4068414941888892,0.8715516180457039,0.6566201524951704,0.2303237656422056,0.3737576543635552,0.6223037032226802,0.7751130629496809,0.2324049046642536,0.6961199393480209,0.8707414867766471,0.6839857533837196,0.9818092928148391,1.170227849468437,0.9512606058945317,0.7421010924049669,1.035084654961071,1.007476547323186,0.526568336115247,847.3626373626374,775.6410256410256,788.1318681318681,830.4395604395604,769.5970695970697,-0.564026,0.078247,0.830627,-0.403748,3.401947,4.545898,1,1,1,1,1,60.000000
2023-09-01 17:12:28.187,0.8010296254796734,0.5881691305294574,0.3792079569045954,0.4736497172479125,0.6045862233978836,0.1869824025441235,0.4202247329138541,0.5538326436531615,0.9130889118341255,0.4005078930345436,0.6780665463850565,0.7274194682109942,0.657877713275178,0.9667276246962337,1.237611973773982,0.8074199756632492,0.6799081528713812,0.9520235410746404,1.058556007544021,0.510750439257987,785.7142857142858,802.6373626373627,816.7399267399268,828.8278388278388,711.978021978022,-0.366577,0.059265,0.901367,1.300964,-28.733368,-1.891632,1,1,1,1,1,60.000000
2023-09-01 17:12:28.220,,,,,,,,,,,,,,,,,,,,,,,,,,,,,,,,,,,,,,/muse/elements/blink
2023-09-01 17:12:29.179,0.7936584101287544,0.4565891829598079,0.316154608197826,0.4881184388394917,0.4755081067040058,0.1752283909407717,-0.0001784200796931403,0.6465641790137182,0.6525642859906645,0.5510801674307476,0.3648970850735353,0.4629396240201401,0.6163977545103705,1.100600400861128,1.080410973167309,0.7349736661657281,0.6239283009691138,0.9772544696587159,1.347175488039968,0.6814690541628938,765.5677655677656,782.4908424908425,779.6703296703297,841.3186813186813,760.7326007326008,-0.251709,0.031433,0.957153,1.450500,-6.631927,-3.499146,1,1,1,1,1,60.000000
2023-09-01 17:12:30.180,0.8348833131781289,0.3501943634984811,0.316154608197826,0.4893432792250837,0.4587057680538944,0.0926333852186918,-0.0001784200796931403,0.649288564255464,0.5644790317763797,0.5211870326658671,0.3648970850735353,0.4063399599035787,0.6217888771613831,0.8710182481189831,1.080410973167309,0.7560901511602295,0.6268732845247131,0.8501357555568654,1.347175488039968,0.7206284088590141,647.1062271062272,788.1318681318681,796.5934065934066,743.8095238095239,701.9047619047619,-0.246094,0.035339,0.956848,1.001892,-1.099091,-0.485992,1,1,1,1,1,80.000000
2023-09-01 17:12:30.572,,,,,,,,,,,,,,,,,,,,,,,,,,,,,,,,,,,,,,/muse/elements/blink
2023-09-01 17:12:31.195,0.8348833131781289,0.1951930844575758,-0.1636916763474447,0.4893432792250837,0.4587057680538944,0.001598927754681934,0.06145731689203945,0.649288564255464,0.5644790317763797,0.433759677592119,0.3659597874499824,0.4063399599035787,0.6217888771613831,0.9720641275944343,1.188150773466634,0.7560901511602295,0.6268732845247131,0.8478398816968593,1.346709192236122,0.7206284088590141,717.6190476190476,808.6813186813187,805.0549450549451,792.5641025641025,920.2930402930403,-0.334717,-0.003540,0.931030,-15.110626,-6.048737,-19.970551,1,2,1,1,2,80.000000
2023-09-01 17:12:31.964,,,,,,,,,,,,,,,,,,,,,,,,,,,,,,,,,,,,,,/muse/elements/jaw_clench
2023-09-01 17:12:32.179,0.8348833131781289,0.0727479035365423,-0.1636916763474447,1.226721848157184,0.4587057680538944,-0.2949926768062483,0.06145731689203945,0.4206178451093028,0.5644790317763797,0.3310446056586291,0.3659597874499824,0.8680456929206278,0.6217888771613831,1.061262369989901,1.188150773466634,0.8017279669398411,0.6268732845247131,0.8929622794736198,1.346709192236122,0.4491797901401436,658.7912087912088,805.0549450549451,813.919413919414,753.8827838827839,776.8498168498169,-0.301086,-0.028931,0.935181,6.699219,-7.282410,3.140259,1,1,1,1,1,80.000000
2023-09-01 17:12:33.190,0.9090959372240732,0.1966759643451203,0.5103779763081154,0.8921539814622139,0.6410277850684846,-0.1402800987269331,-0.1357334166956671,0.2091846428658304,0.9474992556932773,0.1917143221157456,0.8793659964725927,0.9049672157258147,0.7490670241205156,0.9950200478228279,0.941750646917349,0.8179940477190163,0.6880078665368509,0.9282536995706515,1.083056043612172,0.461562148977087,770,789.3406593406594,828.4249084249085,804.2490842490843,718.021978021978,-0.304382,0.014648,0.941956,1.345825,2.302856,1.667328,1,1,1,1,1,80.000000
2023-09-01 17:12:33.701,,,,,,,,,,,,,,,,,,,,,,,,,,,,,,,,,,,,,,/muse/elements/blink
2023-09-01 17:12:34.191,0.5259412168778158,0.5269276092601407,-0.07276816585652759,0.3010988573682063,0.6009601466523047,0.2524295596262234,-0.1020806414437439,0.1284970030013185,0.6135241745176208,0.56012635738232,0.5140441861512216,0.6680935828284154,0.6857161644630506,0.8916252474150569,1.100454828839761,0.8417087244764566,0.6326550682656719,0.9336096479790983,1.098553615929278,0.4511395720471251,695.0549450549451,772.4175824175825,794.981684981685,775.6410256410256,846.959706959707,-0.505249,0.022034,0.840942,-0.717773,-12.404022,-6.370239,1,1,1,1,1,80.000000
2023-09-01 17:12:34.594,,,,,,,,,,,,,,,,,,,,,,,,,,,,,,,,,,,,,,/muse/elements/jaw_clench
2023-09-01 17:12:34.812,,,,,,,,,,,,,,,,,,,,,,,,,,,,,,,,,,,,,,/muse/elements/blink
2023-09-01 17:12:35.180,0.6005971586855229,0.5807219174232203,0.1144020979369839,0.3838477424457832,0.6715823444528405,0.2211052777165251,0.2549547036115491,0.1160555857828913,0.575473742060078,0.5108927322714514,0.5016395363880504,0.4682770237067329,0.6397631006118316,0.8622737538598833,1.287637982057467,0.8523796833750527,0.612581618891511,0.9915098340256732,1.087391135807047,0.4871206210833618,657.5824175824176,812.3076923076924,800.2197802197802,752.6739926739926,718.4249084249085,-0.517456,0.039856,0.844910,1.577606,-3.147736,-0.112152,1,1,1,1,1,80.000000
2023-09-01 17:12:36.180,0.6005971586855229,0.3057380709298431,0.2229446312539427,0.2891412907776687,0.6715823444528405,-0.1004286993929818,-0.006693275438758224,0.3473350517406732,0.575473742060078,0.5050675506329767,0.3396596516254563,0.6155875985816512,0.6397631006118316,0.9321993390463974,1.29222131761081,0.6666723189529389,0.612581618891511,0.9581664678395362,1.042965696691953,0.6084051811382127,619.7069597069598,800.2197802197802,818.7545787545788,718.8278388278388,648.3150183150183,-0.513794,0.032715,0.847107,1.996307,-3.686066,-0.485992,1,1,1,1,1,80.000000
2023-09-01 17:12:37.182,0.6005971586855229,0.3057380709298431,0.3233782963751787,0.218806334583339,0.6715823444528405,-0.1004286993929818,-0.09404282140619906,0.2513966359810827,0.575473742060078,0.5050675506329767,0.5542885731336704,0.6082816911715934,0.6397631006118316,0.9321993390463974,1.054082169938215,0.6879204479529681,0.612581618891511,0.9581664678395362,1.292497073144856,0.6587287012693099,723.6630036630037,795.3846153846154,809.8901098901099,782.0879120879121,800.6227106227107,-0.383606,0.056763,0.910583,5.891724,-10.527344,-1.076660,1,1,1,1,1,80.000000
2023-09-01 17:12:38.180,0.6881633439872875,-0.03049097977447853,0.1927248531221813,1.026324887773473,0.5211037549484965,-0.2440822416792097,-0.055509158879483,0.5834183761979308,0.8057775974386239,0.2403327017571136,0.6086361519495073,0.8439386225259167,0.5861356319036224,0.8049957016898983,1.160250051471456,0.6764840549801113,0.5221615633340785,0.8632384159249875,1.268648931739407,0.3239092223306543,597.948717948718,750.2564102564103,824.7985347985348,682.967032967033,793.7728937728938,-0.242432,0.056213,0.955688,1.487885,-5.428162,3.192596,1,1,1,1,1,80.000000
2023-09-01 17:12:38.399,,,,,,,,,,,,,,,,,,,,,,,,,,,,,,,,,,,,,,/muse/elements/blink
2023-09-01 17:12:39.100,,,,,,,,,,,,,,,,,,,,,,,,,,,,,,,,,,,,,,/muse/elements/blink
2023-09-01 17:12:39.180,0.621880088739718,0.1474868708927393,-0.03824386849020552,0.9849711758499505,0.492027344601501,-0.139098980971733,-0.09259437759985692,0.5091119155398696,0.7511603846654219,0.3327147380968698,0.5231030354151793,0.7338862215291978,0.5916621229586616,0.8560438042285614,1.239837798826762,0.6138861618674296,0.5410332621720316,0.8247291114649263,1.077635163432521,0.3245523455475827,522.1978021978022,784.5054945054945,751.0622710622711,726.4835164835165,547.5824175824176,-0.350220,0.037354,0.924255,-5.301056,14.377899,14.968567,1,1,1,1,1,80.000000
2023-09-01 17:12:39.885,,,,,,,,,,,,,,,,,,,,,,,,,,,,,,,,,,,,,,/muse/elements/jaw_clench
2023-09-01 17:12:40.081,,,,,,,,,,,,,,,,,,,,,,,,,,,,,,,,,,,,,,/muse/elements/jaw_clench
2023-09-01 17:12:40.180,0.5768017107523168,0.9312395378827618,-0.08983457386841087,0.9840648315538589,0.5295157902366756,0.9717452130466665,-0.08065137811068568,0.4788844611661491,0.6991747297080422,0.6879927568144913,0.4110105661066742,0.5203021629060001,0.6367077302905934,1.032044749285179,1.241047311977652,0.5595604044643597,0.5420207596522487,0.9862421849440545,1.082720533004524,0.3460456241534369,603.992673992674,765.1648351648352,794.5787545787546,717.6190476190476,746.2271062271062,-0.435425,0.023499,0.890259,2.018738,-3.701019,-0.583191,1,1,1,1,1,80.000000
2023-09-01 17:12:41.180,0.5768017107523168,0.9312395378827618,-0.08983457386841087,0.9840648315538589,0.5295157902366756,0.9717452130466665,-0.08065137811068568,0.4788844611661491,0.6991747297080422,0.6879927568144913,0.4110105661066742,0.5203021629060001,0.6367077302905934,1.032044749285179,1.241047311977652,0.5595604044643597,0.5420207596522487,0.9862421849440545,1.082720533004524,0.3460456241534369,668.0586080586081,862.6739926739926,799.8168498168499,756.7032967032967,812.3076923076924,-0.398926,0.036621,0.898438,4.104767,-1.345825,-9.316101,1,2,1,1,2,65.000000
2023-09-01 17:12:41.801,,,,,,,,,,,,,,,,,,,,,,,,,,,,,,,,,,,,,,/muse/elements/blink
2023-09-01 17:12:42.180,0.5768017107523168,0.9312395378827618,-0.08983457386841087,0.9840648315538589,0.5295157902366756,0.9717452130466665,-0.08065137811068568,0.4788844611661491,0.6991747297080422,0.6879927568144913,0.4110105661066742,0.5203021629060001,0.6367077302905934,1.032044749285179,1.241047311977652,0.5595604044643597,0.5420207596522487,0.9862421849440545,1.082720533004524,0.3460456241534369,655.1648351648352,803.8461538461539,816.3369963369963,719.2307692307693,631.7948717948718,-0.374207,0.055481,0.914734,-0.598145,-3.087921,3.237457,1,2,1,1,2,65.000000
2023-09-01 17:12:43.188,0.9012182204039941,0.5920064789824098,0.580204946944999,1.189248013919314,0.6752565160207467,0.14561162760763,-0.2658490972303228,0.5761010383080558,0.7584295408406013,0.5360624224818553,0.6119489371524344,0.6407185305399055,0.6134368341164146,0.8740509865610318,1.157641884873745,0.763263877468576,0.4759899747082697,0.8875342566220428,0.9502241406979546,0.5612079073182161,643.8827838827839,795.7875457875458,803.040293040293,743.0036630036631,663.6263736263736,-0.393921,0.026245,0.892090,2.661743,-4.792633,0.403748,1,1,1,1,1,65.000000
2023-09-01 17:12:44.180,0.7517296175734492,0.4080368943752476,0.5321981280189096,0.696605564956279,0.7153365410110117,0.07212238475232143,0.0228059504612695,0.696683356194391,0.6712784882245763,0.5360624224818553,0.6765656750500642,0.7652128533625991,0.6794414664040952,0.8240929464083501,1.251184600475475,0.6141006664477302,0.3007679544915406,0.9359308375882895,1.083260076340025,0.4224376081907731,628.5714285714286,776.4468864468864,799.4139194139194,713.1868131868132,720.8424908424909,-0.379333,0.039001,0.912842,2.482300,-3.790741,-0.530853,1,1,1,1,1,65.000000
2023-09-01 17:12:45.105,,,,,,,,,,,,,,,,,,,,,,,,,,,,,,,,,,,,,,/muse/elements/blink
2023-09-01 17:12:45.180,0.7630664289855857,0.2224934053188307,0.2276897654654543,0.6552743991973737,0.338076263776901,-0.003380098595031498,0.2423507969651058,0.5314692611390546,0.4699084965411408,0.4937816235765299,0.4361759338490109,0.7007694060558448,0.7201034698925366,0.9296404674798165,1.22361067123179,0.5941565999148274,0.2689702705797573,0.8695515400419456,1.195676345922939,0.5124802688277575,617.6923076923077,777.6556776556777,780.4761904761905,688.2051282051282,655.9706959706959,-0.363708,0.045776,0.912964,-1.024323,-2.003784,2.497253,1,1,1,1,1,65.000000
2023-09-01 17:12:46.074,,,,,,,,,,,,,,,,,,,,,,,,,,,,,,,,,,,,,,/muse/elements/blink
2023-09-01 17:12:46.180,0.8017578163774909,0.4701328820149011,0.1641006755571524,0.289394606031335,0.2907327972453626,-0.08241283714711639,0.2799826118054512,0.3058290178085841,0.3985882800147823,0.5217007200187717,0.3601469941397367,0.5266895221441733,0.7837258640229059,1.023785458250884,1.181983705392152,0.5662584489391664,0.3177520073984547,0.7177740769327288,1.178847585149964,0.5833118827500362,633.8095238095239,756.7032967032967,793.3699633699634,718.021978021978,683.7728937728938,-0.373596,0.041260,0.906921,1.891632,-4.358978,-3.170166,1,1,1,1,1,65.000000
2023-09-01 17:12:47.180,0.8017578163774909,0.373317468270861,0.1641006755571524,0.289394606031335,0.2907327972453626,0.1436225784009571,0.2799826118054512,0.3058290178085841,0.3985882800147823,0.4706524933008645,0.3601469941397367,0.5266895221441733,0.7837258640229059,0.8753112781238339,1.181983705392152,0.5662584489391664,0.3177520073984547,0.7812700509345016,1.178847585149964,0.5833118827500362,601.5750915750916,779.2673992673992,833.6630036630037,734.9450549450549,637.8388278388279,-0.366272,0.044312,0.914612,-0.276642,-5.001984,1.375732,1,1,1,1,1,65.000000
2023-09-01 17:12:48.180,0.8417691324552463,0.5168722867120256,-0.03601462001133371,0.6196252821302338,0.245061465253441,0.0690206340871506,-0.07967986697205164,0.4241056492354299,0.6861387806888229,0.7409880773610259,0.4130785572626264,0.8664621650438149,0.7560086220379028,0.831800550920102,1.237409411987058,0.6904612350751991,0.3876147273829471,0.9299210158230928,1.090754505511477,0.3401409390556485,523.8095238095239,772.8205128205128,819.5604395604396,710.3663003663004,538.7179487179487,-0.366028,0.041992,0.916626,-0.029907,-2.878571,2.975769,1,1,1,1,1,65.000000
2023-09-01 17:12:49.180,0.8417691324552463,0.5857460723123195,0.1132612967390089,0.7566807893530172,0.245061465253441,0.229705907470055,-0.2368732094220303,0.5147163767684078,0.6861387806888229,0.7719869626878281,0.3440653516227847,0.8458871174111393,0.7560086220379028,0.7734838654929064,1.227308107692165,0.6175955778466486,0.3876147273829471,0.7232232497896949,1.070242267002514,0.4004348430205443,586.2637362637363,785.7142857142858,803.040293040293,726.0805860805862,610.4395604395604,-0.392578,0.040466,0.904419,1.278534,-3.416901,-1.547699,1,1,1,1,1,65.000000
2023-09-01 17:12:50.180,1.182932961265534,0.9026301043153186,0.1709346962055107,0.8034090862156813,0.6926749107433757,0.5025455825259734,-0.3014206992096058,0.6016309303717949,0.7629396115656968,0.4443081785794205,0.08197545190952499,0.613477779164131,0.717923344093669,1.007004929403065,1.191718801343419,0.5085567435815729,0.3920970965228227,0.8782622021269701,1.086476271404945,0.3776585129336815,577.3992673992674,784.1025641025641,813.1135531135532,740.1831501831502,853.0036630036631,-0.389099,0.036316,0.915710,3.521576,0.044861,-1.547699,1,1,1,1,1,65.000000
2023-09-01 17:12:50.863,,,,,,,,,,,,,,,,,,,,,,,,,,,,,,,,,,,,,,/muse/elements/blink
2023-09-01 17:12:51.180,1.20475432172329,0.5684182865074148,0.1709346962055107,1.041119787916529,0.7324990607214728,0.1309921155395513,-0.3014206992096058,0.3885685259531416,0.8653543878478213,0.4529273633277019,0.08197545190952499,0.9732936491530018,0.7178935447747479,0.9254154978587091,1.191718801343419,0.8778491861275526,0.3601201500692904,0.8329291292258664,1.086476271404945,0.4722941903978751,550,786.9230769230769,772.8205128205128,722.0512820512821,639.4505494505495,-0.418579,0.056519,0.900879,2.302856,-2.153320,4.388885,1,1,1,1,1,60.000000
2023-09-01 17:12:51.565,,,,,,,,,,,,,,,,,,,,,,,,,,,,,,,,,,,,,,/muse/elements/blink
2023-09-01 17:12:52.191,1.235558865223764,0.2267881497843421,0.3280178758112271,1.045399091595389,0.7861266377347726,0.09251298101075896,0.189008709575036,0.4257307581938722,0.8506790175411552,0.4156559227993349,0.5551104187096154,0.9730880484592097,0.7178488419622137,1.011512803451852,1.113849899642761,0.8708829874074702,0.3072537275810167,0.7640599945433914,1.251771064065993,0.4986790195311623,565.7142857142858,784.5054945054945,821.5750915750916,751.0622710622711,658.7912087912088,-0.388855,0.038330,0.902222,3.828125,-4.501038,-1.054230,1,1,1,1,1,60.000000
2023-09-01 17:12:53.180,1.235558865223764,-0.1481557149219892,0.3182307682599972,0.8406116628588982,0.7861266377347726,-0.1453098907868023,-0.03244790649343944,0.5366478440546976,0.8506790175411552,0.4870380073688775,0.6230264754891146,0.6192450239469511,0.7178488419622137,0.9519240727546413,1.134822421737117,0.4830487941743039,0.3072537275810167,0.8998023349086258,1.167242054900808,0.2616609953285428,550.8058608058608,797.8021978021978,776.0439560439561,734.9450549450549,740.1831501831502,-0.384705,0.035645,0.914490,-0.231781,-1.906586,-1.054230,1,1,1,1,1,60.000000
2023-09-01 17:12:54.185,1.326516207096156,0.1133312592509093,0.4524416529248266,0.5202333718847519,1.040177937380521,-0.06558847885002726,0.2353214914758378,0.5458946554138793,0.922520466234355,0.4207376215948325,0.5568817477376399,0.7495287306516669,0.5929764838136607,0.9333477066640699,1.113838490192156,0.5980118853571752,0.4332476826206633,0.7837039535366936,1.025394346470882,0.2924412668705553,687.3992673992674,801.4285714285714,818.7545787545788,794.1758241758242,700.6959706959707,-0.368164,0.044739,0.910034,2.317810,-3.588867,0.575714,1,1,1,1,1,60.000000
2023-09-01 17:12:54.617,,,,,,,,,,,,,,,,,,,,,,,,,,,,,,,,,,,,,,/muse/elements/blink
2023-09-01 17:12:55.180,1.064830477384143,0.3064207169220341,0.2517534319734305,0.4078608228593357,0.8013249892933901,0.2622892563833213,0.3080577943937199,0.4632585769057509,0.911014218021155,0.8504181936630647,0.3228273306077737,0.6636478383241063,0.4678237681272709,0.9006552258275083,1.112358989251977,0.7421695576587413,0.3236052777811012,0.7007101655947986,1.2169663207785,0.6167007054106419,475.4578754578754,806.6666666666667,796.5934065934066,711.5750915750916,758.3150183150184,-0.424988,0.051758,0.898193,1.727142,-2.751465,-4.882355,1,1,1,1,1,60.000000
2023-09-01 17:12:55.936,,,,,,,,,,,,,,,,,,,,,,,,,,,,,,,,,,,,,,/muse/elements/blink
2023-09-01 17:12:56.179,0.716231631346407,0.6822729591065504,0.3262298357918312,0.07159689689381936,0.7631063188238009,0.4599864324226127,0.3277182328106198,0.439557819952028,0.7628091530689257,0.8906461628441935,0.3228273306077737,0.4574069020487663,0.3473370413269883,0.8631726411465133,1.172447185135738,0.6825361845628873,0.2971113437543176,0.6988420873859505,1.224852166469834,0.6724178755350601,543.5531135531136,778.0586080586081,818.3516483516484,759.1208791208792,722.0512820512821,-0.386230,0.041443,0.918274,0.246735,-8.217010,2.026215,1,1,1,1,1,60.000000
2023-09-01 17:12:57.180,0.716231631346407,0.5570694624278637,0.3262298357918312,0.07159689689381936,0.7631063188238009,0.1771194990114642,0.3277182328106198,0.439557819952028,0.7628091530689257,0.511582160367358,0.3228273306077737,0.4574069020487663,0.3473370413269883,0.888990761474959,1.172447185135738,0.6825361845628873,0.2971113437543176,0.6956559706777563,1.224852166469834,0.6724178755350601,551.6117216117216,800.2197802197802,784.5054945054945,731.7216117216118,611.6483516483516,-0.352051,0.038391,0.923218,1.428070,-3.229980,-2.115936,1,1,1,1,1,60.000000
2023-09-01 17:12:58.184,0.716231631346407,-0.02342840774813985,0.53980446617501,0.07159689689381936,0.7631063188238009,0.04201827933467579,-0.09638939949649032,0.439557819952028,0.7628091530689257,0.05718160905897234,0.2022896654375098,0.4574069020487663,0.3473370413269883,0.8356249726485072,1.023583165207089,0.6825361845628873,0.2971113437543176,0.8372545232062838,0.8647143912815032,0.6724178755350601,695.0549450549451,794.1758241758242,768.7912087912088,788.9377289377289,839.3040293040293,-0.335876,0.043640,0.925842,3.671112,-2.198181,0.927124,1,2,1,1,2,60.000000
2023-09-01 17:12:58.586,,,,,,,,,,,,,,,,,,,,,,,,,,,,,,,,,,,,,,/muse/elements/blink
2023-09-01 17:12:59.188,0.716231631346407,0.2970394066224005,0.4470554610919969,0.07159689689381936,0.7631063188238009,0.1202611602984623,-0.05445316373238664,0.439557819952028,0.7628091530689257,0.4112866686396933,0.5049075855358423,0.4574069020487663,0.3473370413269883,0.8393076033229916,1.060347347339758,0.6825361845628873,0.2971113437543176,0.7156599985057562,0.9918767153353188,0.6724178755350601,635.0183150183151,809.0842490842491,774.4322344322345,774.0293040293041,703.1135531135532,-0.317810,0.046936,0.938049,0.777588,-5.719757,-1.233673,1,2,1,1,2,60.000000
2023-09-01 17:13:00.188,1.161616845144006,0.363571566453642,0.344079280118365,0.8713152264241454,0.988655339992116,0.2651758644016979,0.01524295395775118,0.675805877618703,0.8646389944787771,0.3790495096488214,0.555965468022565,0.8163633926099344,0.7693218322502587,0.6929567806528943,1.14873165582303,0.6536174755298799,0.4270109599617259,0.770136265647647,1.134500430122359,0.313731703380236,887.2527472527473,789.3406593406594,790.1465201465202,828.4249084249085,770,-0.352295,0.017944,0.929626,-0.074768,-3.439331,0.321503,1,1,1,1,1,60.000000
2023-09-01 17:13:01.179,0.9183231200584329,0.2217152671956396,0.2632091090995974,0.8013170013199123,0.7637798985297158,0.1260039352754014,0.02267018626460716,0.5210116869600736,0.9219749385592104,0.4085009440267008,0.4423046382581536,0.8825780632032887,0.7774650321892697,0.8351439872807369,1.197866175089321,0.7039018819398172,0.4167836928836271,0.8789660995351999,1.144582266466206,0.3575356546837429,555.2380952380953,790.5494505494506,793.7728937728938,743.0036630036631,817.948717948718,-0.356812,0.032837,0.924255,3.401947,-1.024323,-2.467346,1,1,1,1,1,65.000000
2023-09-01 17:13:02.180,0.692762744958953,0.323624443175217,0.3899043189590262,1.068974084008555,0.6053779562897418,-0.1313079191943069,0.09134918899557182,0.3661423775649805,0.5019051266367034,0.3944983306844527,0.1601257152124383,0.7799588726588255,0.6791678650021318,0.9985869758088092,1.193181798527549,0.736499872774052,0.3538114883577963,0.8451323396240167,1.169891839305299,0.149646375576601,690.2197802197802,777.6556776556777,778.8644688644689,790.1465201465202,766.3736263736264,-0.354858,0.033325,0.931946,1.121521,-3.416901,0.179443,1,1,1,1,1,65.000000
2023-09-01 17:13:02.350,,,,,,,,,,,,,,,,,,,,,,,,,,,,,,,,,,,,,,/muse/elements/blink
2023-09-01 17:13:03.180,0.9084964417983651,0.5016159803846528,0.3899043189590262,1.258580090744817,0.7981424295246525,-0.1146598746564196,0.09134918899557182,0.4547733876570609,0.3557747054277069,0.3624678151246907,0.1601257152124383,0.7453769832546397,0.4695203062931867,1.104199359917024,1.193181798527549,0.6777737827941779,0.3088453060696314,0.8598725451495781,1.169891839305299,0.1078136524665646,639.047619047619,772.014652014652,832.4542124542124,842.9304029304029,741.7948717948718,-0.322937,0.063171,0.941284,-5.226288,-2.415009,13.286285,1,1,1,1,1,65.000000
2023-09-01 17:13:04.180,0.9084964417983651,0.5810376621356539,0.3899043189590262,1.258580090744817,0.7981424295246525,0.03970206338494435,0.09134918899557182,0.4547733876570609,0.3557747054277069,0.5055734797602731,0.1601257152124383,0.7453769832546397,0.4695203062931867,0.7944784616105274,1.193181798527549,0.6777737827941779,0.3088453060696314,0.8115511126220513,1.169891839305299,0.1078136524665646,533.0769230769231,782.0879120879121,812.3076923076924,761.5384615384615,683.7728937728938,-0.366211,0.022400,0.918152,4.067383,-1.600037,-4.515991,1,1,1,1,1,65.000000
2023-09-01 17:13:05.056,,,,,,,,,,,,,,,,,,,,,,,,,,,,,,,,,,,,,,/muse/elements/blink
2023-09-01 17:13:05.180,0.6184531518663757,0.4312022984279512,0.2953908561352286,0.6430507053176067,0.669990383147428,-0.2349503331762757,-0.4323465086122484,0.168335149871346,1.06512096342733,0.4483346091519093,0.1128044854983056,0.3631358893549061,0.5498937810033976,0.8414706304904734,1.16353242862259,0.6983831066655273,0.5568759693833474,0.7130650837363955,1.117664035736738,0.3745679958097067,532.2710622710623,790.1465201465202,792.5641025641025,723.2600732600732,697.4725274725275,-0.382019,0.019592,0.911072,7.155304,2.108459,-15.058289,1,1,1,1,1,65.000000
2023-09-01 17:13:05.293,,,,,,,,,,,,,,,,,,,,,,,,,,,,,,,,,,,,,,/muse/elements/blink
2023-09-01 17:13:06.180,1.165017480749128,0.8119772844207211,0.3145613038310575,0.7199205833961618,1.14694320772132,0.4086813606038897,-0.5172090108428675,0.2538684509940154,1.142135760619188,0.5797103255569607,0.01913956225130845,0.3009531586177911,0.4531470172831444,0.8223330964024886,1.155362603875268,0.6637395419308482,0.4608188149121496,0.7880479176490962,1.041499515484807,0.3989751440032894,675.3113553113553,807.4725274725275,822.3809523809524,774.8351648351648,827.6190476190476,-0.367004,0.026611,0.914856,2.848663,-1.031799,-0.598145,1,1,1,1,1,65.000000
2023-09-01 17:13:06.421,,,,,,,,,,,,,,,,,,,,,,,,,,,,,,,,,,,,,,/muse/elements/blink
2023-09-01 17:13:07.192,0.849103295179523,0.4105915154606782,0.2926198908767281,0.7199205833961618,0.8734383365356383,0.3227493961959151,-0.1880593018538961,0.2538684509940154,0.8064458979569219,0.5868363048343836,0.5598598006961674,0.3009531586177911,0.4482294645310367,0.8207031309571056,1.202490986642031,0.6637395419308482,0.4585320965525384,0.9348615623626705,1.074677390132579,0.3989751440032894,933.1868131868132,801.4285714285714,831.2454212454213,855.0183150183151,1116.923076923077,-0.376831,0.029602,0.915894,2.609406,-4.515991,0.179443,1,1,1,1,1,65.000000
2023-09-01 17:13:08.179,0.7700402916947842,0.5167247452880946,0.2829535447809612,0.2148169784276973,0.8407726407217067,0.1446607384447779,-0.2204508805245723,0.7647608541779967,0.6168434485190732,0.6078817172843496,0.5448696412753964,0.6685702379171615,0.5721065755704215,0.8971793732004165,1.09960392052427,0.6800233038458572,0.3383007915722514,0.6713352188726028,1.039122447050613,0.3419248972102573,829.6336996336996,797.8021978021978,779.2673992673992,789.7435897435897,800.6227106227107,-0.377075,0.031372,0.912842,2.205658,-1.286011,0.882263,1,1,1,1,1,65.000000
2023-09-01 17:13:09.188,1.081372747113055,0.4445567926547459,0.2802201261112408,0.8464178658971419,0.7239808320784703,0.05933269829319677,0.1888534237915275,0.6491516374818588,0.8869811446013769,0.4705911826387251,0.2624859234324774,0.7857838876001357,0.7438547250535276,0.9065950330982254,1.09752298627777,0.6095466836459936,0.4622234155861153,0.7834615156180446,0.9681086701019984,0.3516044674232648,1039.56043956044,780.8791208791209,813.5164835164835,867.1062271062272,798.2051282051282,-0.382141,0.047119,0.911438,3.424377,-2.863617,2.878571,1,1,1,1,1,65.000000
2023-09-01 17:13:09.941,,,,,,,,,,,,,,,,,,,,,,,,,,,,,,,,,,,,,,/muse/elements/blink
2023-09-01 17:13:10.181,1.268880499276077,0.3165430765400734,0.2612908210016797,1.091412642759655,0.8259249968144675,-0.1995075673483656,0.04113624810813368,0.60899212837296,0.8730486731257558,0.2345822002626484,0.2701087765779861,0.617289338476162,0.788661925048986,1.056304148175058,1.166999875950617,0.899437777533558,0.4728922476809587,0.762947590214673,1.022940710337081,0.3591287266570181,990,785.3113553113553,803.4432234432235,853.4065934065934,1036.336996336996,-0.403381,0.046204,0.898010,1.973877,-1.600037,1.188812,1,1,1,1,1,65.000000
2023-09-01 17:13:10.268,,,,,,,,,,,,,,,,,,,,,,,,,,,,,,,,,,,,,,/muse/elements/blink
2023-09-01 17:13:11.180,1.268880499276077,0.04329634197082879,0.252452340516082,1.091412642759655,0.8259249968144675,-0.1139792745124354,-0.03899338935191513,0.60899212837296,0.8730486731257558,0.3180362279876209,0.3303294686934004,0.617289338476162,0.788661925048986,1.001982408755288,1.140226820322818,0.899437777533558,0.4728922476809587,0.9240383363384466,0.9645170296993669,0.3591287266570181,914.2490842490843,798.2051282051282,804.2490842490843,842.9304029304029,802.2344322344322,-0.403015,0.047424,0.900208,3.357086,-2.579498,0.179443,1,1,1,1,1,65.000000
2023-09-01 17:13:12.181,1.268880499276077,0.2491797371726319,0.1301783543512151,0.8161749221433461,0.8259249968144675,-0.5091185757197552,-0.1371648323350022,0.8424305324589906,0.8730486731257558,0.5333645200734922,0.3598026501034826,0.6002579281474293,0.788661925048986,0.9965220226819064,1.104984589085658,0.6828641889531415,0.4728922476809587,0.7886199496964111,0.9773666589364681,0.3978187326811006,1149.56043956044,801.4285714285714,827.2161172161173,853.8095238095239,799.0109890109891,-0.466980,0.040039,0.871521,0.456085,-3.200073,-1.540222,1,1,1,1,1,60.000000
2023-09-01 17:13:13.180,1.268880499276077,0.4492592253814037,-0.03222589572200619,1.011909998367492,0.8259249968144675,0.1134881903694603,-0.1455181980344258,0.8333614425366872,0.8730486731257558,0.6333163202716143,0.3604230693956393,0.9571296302480373,0.788661925048986,0.9936250255977257,1.086398548611803,0.8203303784115078,0.4728922476809587,0.649541860475448,1.090714533655285,0.4427221653208243,1076.227106227106,801.4285714285714,826.8131868131868,850.1831501831502,884.4322344322345,-0.463135,0.033813,0.877441,2.280426,0.605621,0.545807,1,1,1,1,1,60.000000
2023-09-01 17:13:14.180,1.268880499276077,0.1953675661751569,-0.02833992485313723,1.19598830165976,0.8259249968144675,0.3807873687033472,-0.08336204537720086,0.8658796377837742,0.8730486731257558,0.6750751483256513,0.3604230693956393,0.9420082587514859,0.788661925048986,1.228142738318091,1.079938422442064,0.9504823075589438,0.4728922476809587,0.9602138243701004,1.099518582218452,0.5304942699450882,971.4652014652015,808.6813186813187,762.7472527472528,847.7655677655678,808.6813186813187,-0.450317,0.042053,0.883667,2.250519,-5.869293,1.472931,1,1,1,1,1,60.000000
2023-09-01 17:13:14.454,,,,,,,,,,,,,,,,,,,,,,,,,,,,,,,,,,,,,,/muse/elements/blink
2023-09-01 17:13:14.612,,,,,,,,,,,,,,,,,,,,,,,,,,,,,,,,,,,,,,/muse/elements/jaw_clench
2023-09-01 17:13:15.181,1.268880499276077,0.3640931885077544,-0.02833992485313723,1.19598830165976,0.8259249968144675,-0.004516525751501629,-0.08336204537720086,0.8658796377837742,0.8730486731257558,0.5795402874618568,0.3604230693956393,0.9420082587514859,0.788661925048986,1.220951721310941,1.079938422442064,0.9504823075589438,0.4728922476809587,0.9296596827496924,1.099518582218452,0.5304942699450882,1089.52380952381,815.5311355311355,808.2783882783883,863.4798534798535,863.0769230769231,-0.496704,0.036987,0.848694,2.631836,-2.213135,-0.934601,1,1,1,1,1,60.000000
2023-09-01 17:13:16.180,1.336309059323597,0.3323882352833171,-0.02833992485313723,1.431040878811692,1.124957843973668,0.05160024422054289,-0.08336204537720086,0.9780088524665137,1.360999468320799,0.2265350065008987,0.3604230693956393,1.004244351862587,1.021305194473856,1.125154922403427,1.079938422442064,1.028731883075063,0.8556440297182275,0.7897762669673734,1.099518582218452,0.4691885555693472,672.893772893773,798.6080586080586,808.2783882783883,782.0879120879121,807.0695970695971,-0.473633,0.026733,0.861389,1.794434,-3.267365,1.308441,1,1,1,1,1,60.000000
2023-09-01 17:13:17.180,1.257523853509259,-0.01157597332915452,-0.02833992485313723,1.318445215856749,1.006124659991495,-0.4188743951681283,-0.08336204537720086,0.9917487409245009,1.359155763116833,0.5598128934793867,0.3604230693956393,1.056964558647022,0.9767308130594364,1.040343920437859,1.079938422442064,0.9071846575127857,0.7285980553691671,0.8060383329484366,1.099518582218452,0.498417163942203,897.7289377289378,799.4139194139194,828.8278388278388,841.3186813186813,909.4139194139194,-0.432861,0.045654,0.891968,2.646790,-2.803802,-1.801910,1,1,1,1,1,60.000000
2023-09-01 17:13:18.180,1.258585797787561,0.07353169711038526,-0.02833992485313723,1.166035065949925,0.974483182936101,-0.3986564234094905,-0.08336204537720086,1.005067234634211,1.307651801328636,0.5595384661066487,0.3604230693956393,0.9697245394848986,0.9571795642775488,1.046223645828953,1.079938422442064,0.7377979845800773,0.6919761179610618,0.8170069400101145,1.099518582218452,0.5258020785007336,798.2051282051282,778.0586080586081,774.4322344322345,823.992673992674,820.3663003663004,-0.445923,0.037903,0.890869,2.160797,-4.097290,-0.231781,1,1,1,1,1,60.000000
2023-09-01 17:13:19.180,0.7137884133941481,0.1074340587346747,0.4084278805364284,0.7032116248914821,0.5983194253391171,-8.772342239369812e-05,-0.1123096212706258,0.6317731198055895,0.5999723156411462,0.2774387047943303,0.5352491429980498,0.715557093311583,0.6444446534615885,1.070222247070476,1.104365815589164,0.676757705062594,0.5118555630661011,0.8203126892190494,1.277037216496509,0.5771369610659305,1004.102564102564,787.3260073260074,776.8498168498169,859.047619047619,758.3150183150184,-0.432312,0.031006,0.870422,2.848663,-1.727142,0.747681,1,1,1,1,1,60.000000
2023-09-01 17:13:20.180,0.7137884133941481,0.5248914477920088,0.4460975399311614,0.7595296448674264,0.5983194253391171,0.1817268413561912,-0.003447399600764185,0.6429038993333031,0.5999723156411462,0.4449539934004402,0.2744596275414386,0.6968089755045227,0.6444446534615885,1.133073567538686,1.053229352504143,0.6848088986567609,0.5118555630661011,0.9144680163442982,1.28596959235614,0.5749433279216006,904.5787545787546,798.6080586080586,780.0732600732601,853.0036630036631,755.8974358974359,-0.431213,0.022888,0.887207,0.732727,-2.018738,-1.106567,1,1,1,1,1,60.000000
2023-09-01 17:13:21.180,0.7137884133941481,0.3738563836124217,0.3751485634641086,0.6333523531465203,0.5983194253391171,0.3999313734734636,0.101198946375931,0.8046901607225161,0.5999723156411462,0.4493057655344227,0.1239952282144229,0.8301564327766449,0.6444446534615885,1.062444580043964,1.054387860474164,0.6161148877919267,0.5118555630661011,0.9018543703326157,1.25420570643625,0.4699449984538714,779.2673992673992,782.893772893773,796.996336996337,822.7838827838829,818.3516483516484,-0.394470,0.029297,0.909363,0.725250,-6.422577,0.867310,1,1,1,1,1,60.000000
2023-09-01 17:13:22.180,0.8721124175753938,0.21158506280877,0.2046520342731513,0.7271021795490463,0.6949403222770105,0.1432909081117103,0.1337393310935689,0.7476642025273211,0.9836837647985134,0.1825697173927515,0.3840662117096659,0.9330998893865016,0.6177758426340834,0.9869699908429622,1.202255069215662,0.7203685591219311,0.5556120269491563,1.024766946978236,1.240747895028468,0.3250387447204042,1004.505494505495,789.3406593406594,809.4871794871796,844.5421245421246,922.7106227106227,-0.395630,0.004578,0.922668,0.919647,-4.837494,1.099091,1,1,1,1,1,65.000000
2023-09-01 17:13:23.066,,,,,,,,,,,,,,,,,,,,,,,,,,,,,,,,,,,,,,/muse/elements/blink
2023-09-01 17:13:23.179,0.8365772192241074,-0.2093376526440894,0.0364335157854532,0.8540092226308,0.8064325273671342,-0.07435488943585239,0.3028798878142409,0.6915539199268701,0.9329441306262475,0.4648418583130903,0.5724291402447023,1.040558544703599,0.7205176496511854,1.110172980335048,1.359483450299186,0.7033041058152439,0.593466657976965,0.8914930120313799,1.155881495710104,0.534606051926015,873.956043956044,793.3699633699634,808.6813186813187,836.8864468864469,796.996336996337,-0.377380,-0.025208,0.911865,4.351501,-4.583282,-3.192596,1,1,1,1,1,65.000000
2023-09-01 17:13:24.188,1.120577113472381,0.08383398128338297,0.2222839889036266,0.8997501195590474,0.6203689563539547,-0.04169339688285643,0.09236903895561771,0.5476295278139489,0.7983244885946545,0.4214933821333791,0.564200538833551,1.013178230375974,0.8400191840249671,1.06553615396423,1.199262252119895,0.5819862373388199,0.5295916526890094,0.9190445733224923,1.2225810112733,0.5552267385403824,1104.432234432235,781.6849816849817,791.3553113553114,862.2710622710623,869.92673992674,-0.362427,0.024475,0.890259,3.865509,-1.749573,7.155304,1,1,1,1,1,65.000000
2023-09-01 17:13:24.811,,,,,,,,,,,,,,,,,,,,,,,,,,,,,,,,,,,,,,/muse/elements/blink
2023-09-01 17:13:25.180,1.100830640618288,0.322686337113837,0.3019852804653592,1.270889328612691,0.6502185597217662,0.2029694035941863,-0.03335431065580448,1.01894461016634,0.5813692060850744,0.08694685097328811,0.4741403454573867,1.169591188623887,1.0100428564466,0.9062953405854363,1.039934432301246,0.6306763848436704,0.5368211024615031,0.9480206394589892,1.180434443086654,0.5217002443599821,676.1172161172161,816.7399267399268,801.8315018315019,771.2087912087912,826.007326007326,-0.486755,0.052002,0.875427,0.074768,-7.970276,-10.639496,1,1,1,1,1,65.000000
2023-09-01 17:13:25.184,,,,,,,,,,,,,,,,,,,,,,,,,,,,,,,,,,,,,,/muse/elements/blink
2023-09-01 17:13:26.179,1.100830640618288,0.554431328743192,0.411217761141739,1.644101796301592,0.6502185597217662,0.4022673779194152,0.08687477729970453,1.314760286510719,0.5813692060850744,0.04070429569343617,0.3625014604270324,1.359560211260566,1.0100428564466,0.9691183367642805,1.122441384964443,0.7241756698721927,0.5368211024615031,1.025494013908355,1.086974753192306,0.5858489292465571,730.1098901098901,794.981684981685,745.8241758241759,798.6080586080586,803.8461538461539,-0.534180,0.087280,0.838318,-1.278534,-3.544006,3.170166,1,1,1,1,1,65.000000
2023-09-01 17:13:26.820,,,,,,,,,,,,,,,,,,,,,,,,,,,,,,,,,,,,,,/muse/elements/jaw_clench
2023-09-01 17:13:27.180,1.100830640618288,0.554431328743192,0.411217761141739,1.397512123218849,0.6502185597217662,0.4022673779194152,0.08687477729970453,1.052256619759294,0.5813692060850744,0.04070429569343617,0.3625014604270324,1.173930711721164,1.0100428564466,0.9691183367642805,1.122441384964443,0.72108117009877,0.5368211024615031,1.025494013908355,1.086974753192306,0.548977507310791,778.8644688644689,852.6007326007326,810.2930402930403,795.3846153846154,737.7655677655678,-0.515198,0.044922,0.824951,-2.332764,-8.104858,-0.299072,1,1,1,1,1,65.000000
2023-09-01 17:13:27.849,,,,,,,,,,,,,,,,,,,,,,,,,,,,,,,,,,,,,,/muse/elements/blink
2023-09-01 17:13:28.179,1.100830640618288,0.554431328743192,0.411217761141739,0.9279794732810587,0.6502185597217662,0.4022673779194152,0.08687477729970453,0.9391990180017697,0.5813692060850744,0.04070429569343617,0.3625014604270324,1.077009712753207,1.0100428564466,0.9691183367642805,1.122441384964443,0.7329689156029328,0.5368211024615031,1.025494013908355,1.086974753192306,0.6731146208268671,867.5091575091575,815.1282051282052,825.6043956043957,841.3186813186813,825.2014652014652,-0.545227,0.146484,0.812927,11.835785,1.570129,-3.588867,1,1,1,1,1,65.000000
2023-09-01 17:13:29.180,1.100830640618288,0.554431328743192,0.4790030372765432,0.876049610523111,0.6502185597217662,0.4022673779194152,-0.07118477624858667,0.8057209052280954,0.5813692060850744,0.04070429569343617,0.1954188839332939,1.163851042643542,1.0100428564466,0.9691183367642805,1.413039794112551,0.811102411364603,0.5368211024615031,1.025494013908355,1.133463935423693,0.6269394742970053,779.6703296703297,828.4249084249085,799.4139194139194,811.9047619047619,785.3113553113553,-0.480347,0.104980,0.850098,3.820648,-12.015228,-1.076660,1,1,1,1,1,65.000000
2023-09-01 17:13:30.187,0.9061839481888911,0.2085693742939014,0.2411876388378122,0.7777180775379924,0.2198652808272987,0.04035824383102904,-0.03193297387342192,0.2919995140758649,0.740919885759864,0.5376397691420435,0.6664515614822916,1.037241451268624,0.5808612009986935,0.9172874470354916,1.394439174680141,0.7392133399152104,0.3413915532085847,1.028376070469666,1.112428800611636,0.5615249380592818,921.5018315018315,821.978021978022,832.0512820512821,859.047619047619,962.6007326007326,-0.453430,0.106079,0.876587,-1.218719,-7.192688,7.940369,1,1,1,1,1,65.000000
2023-09-01 17:13:30.374,,,,,,,,,,,,,,,,,,,,,,,,,,,,,,,,,,,,,,/muse/elements/jaw_clench
2023-09-01 17:13:30.659,,,,,,,,,,,,,,,,,,,,,,,,,,,,,,,,,,,,,,/muse/elements/blink
2023-09-01 17:13:31.180,0.9599219609776742,0.1934100420967375,-0.2152169640540561,1.072840358835829,0.7476911128683844,0.1617439593727395,-0.02324995232518819,1.035488705751501,1.237544945677994,0.4427985645677683,0.6650712475779053,1.099331511294773,0.8029231941238909,1.025547573492646,1.296257881748572,0.7104596642343786,0.5681158450810008,1.028632198003155,1.067554930247798,0.6818338559939079,768.7912087912088,811.9047619047619,757.1062271062272,750.6593406593407,919.0842490842491,-0.422913,0.060120,0.854919,16.635895,9.301147,-18.235931,1,1,1,1,1,65.000000
2023-09-01 17:13:31.422,,,,,,,,,,,,,,,,,,,,,,,,,,,,,,,,,,,,,,/muse/elements/blink
2023-09-01 17:13:32.180,1.092938658769296,0.6177762786487819,-0.2152169640540561,1.409525405406423,1.016933783020237,0.5643465753964223,-0.02324995232518819,1.376684638888167,1.216947281856725,0.6006522033112082,0.6650712475779053,1.084059155813439,0.8631843299965362,0.9916129445852364,1.296257881748572,0.8537136548816303,0.6014697609681409,0.9308576284773064,1.067554930247798,0.8021711696280349,714.7985347985348,813.5164835164835,792.1611721611722,790.5494505494506,824.7985347985348,-0.443604,0.062317,0.881836,-2.100983,-5.001984,10.714264,1,1,1,1,1,60.000000
2023-09-01 17:13:33.180,1.220095884381003,0.5782526479548348,-0.2152169640540561,1.409525405406423,1.1117251652818,0.4522831929079111,-0.02324995232518819,1.376684638888167,1.14668435011145,0.5567275974525262,0.6650712475779053,1.084059155813439,0.7826255120592209,1.007384234881429,1.296257881748572,0.8537136548816303,0.5218794714929486,0.8231313401127534,1.067554930247798,0.8021711696280349,596.7399267399268,792.1611721611722,809.0842490842491,751.0622710622711,767.5824175824176,-0.395325,0.026245,0.903687,2.519684,-4.291687,-4.710388,1,1,1,1,1,60.000000
2023-09-01 17:13:33.827,,,,,,,,,,,,,,,,,,,,,,,,,,,,,,,,,,,,,,/muse/elements/blink
