TimeStamp,Delta_TP9,Delta_AF7,Delta_AF8,Delta_TP10,Theta_TP9,Theta_AF7,Theta_AF8,Theta_TP10,Alpha_TP9,Alpha_AF7,Alpha_AF8,Alpha_TP10,Beta_TP9,Beta_AF7,Beta_AF8,Beta_TP10,Gamma_TP9,Gamma_AF7,Gamma_AF8,Gamma_TP10,RAW_TP9,RAW_AF7,RAW_AF8,RAW_TP10,AUX_RIGHT,Accelerometer_X,Accelerometer_Y,Accelerometer_Z,Gyro_X,Gyro_Y,Gyro_Z,HeadBandOn,HSI_TP9,HSI_AF7,HSI_AF8,HSI_TP10,Battery,Elements
2023-08-31 16:47:48.933,,,,,,,,,,,,,,,,,,,,,,,,,,,,,,,,,,,,,,/muse/event/connected Muse-D424
2023-08-31 16:47:48.996,,,,,,,,,,,,,,,,,,,,,,,,,,,,,,,,,,,,,,/muse/elements/jaw_clench
2023-08-31 16:47:49.003,,,,,,,,,,,,,,,,,,,,,,,,,,,,,,,,,,,,,,/muse/elements/blink
2023-08-31 16:47:49.007,,,,,,,,,,,,,,,,,,,,,,,,,,,,,,,,,,,,,,/muse/elements/jaw_clench
2023-08-31 16:47:49.015,,,,,,,,,,,,,,,,,,,,,,,,,,,,,,,,,,,,,,/muse/elements/blink
2023-08-31 16:47:49.021,,,,,,,,,,,,,,,,,,,,,,,,,,,,,,,,,,,,,,/muse/elements/jaw_clench
2023-08-31 16:47:49.262,,,,,,,,,,,,,,,,,,,,,,,,,,,,,,,,,,,,,,/muse/elements/blink
2023-08-31 16:47:49.438,,,,,,,,,,,,,,,,,,,,,,,,,,,,,,,,,,,,,,/muse/elements/blink
2023-08-31 16:47:49.796,,,,,,,,,,,,,,,,,,,,,,,,,,,,,,,,,,,,,,/muse/elements/blink
2023-08-31 16:47:49.942,1.401967505948654,0.7451888110379838,0.9000647854244758,1.159183884745261,1.386512129443834,-0.1326593951477382,0.7088281940926451,1.149119433399278,1.273507949423856,0.3821326621867332,0.4750357967179526,1.19676737343901,0.885836777713374,0.8985052269806669,0.9783299492392338,1.220628220770674,0.6641389506500464,0.6336428355942646,0.8956105079601663,1.248787765623109,261.9047619047619,765.5677655677656,618.901098901099,556.8498168498169,707.5457875457876,-0.816711,0.091797,0.571594,1.899109,-2.033691,-1.398163,1,4,1,1,2,55.000000
2023-08-31 16:47:50.046,,,,,,,,,,,,,,,,,,,,,,,,,,,,,,,,,,,,,,/muse/elements/blink
2023-08-31 16:47:50.295,,,,,,,,,,,,,,,,,,,,,,,,,,,,,,,,,,,,,,/muse/elements/blink
2023-08-31 16:47:50.658,,,,,,,,,,,,,,,,,,,,,,,,,,,,,,,,,,,,,,/muse/elements/blink
2023-08-31 16:47:50.933,1.401967505948654,0.7451888110379838,0.9000647854244758,1.159183884745261,1.386512129443834,-0.1326593951477382,0.7088281940926451,1.149119433399278,1.273507949423856,0.3821326621867332,0.4750357967179526,1.19676737343901,0.885836777713374,0.8985052269806669,0.9783299492392338,1.220628220770674,0.6641389506500464,0.6336428355942646,0.8956105079601663,1.248787765623109,554.4322344322344,780.4761904761905,749.047619047619,745.4212454212454,307.4358974358975,-0.786255,0.099548,0.604553,1.465454,-4.411316,0.381317,1,4,1,4,2,55.000000
2023-08-31 16:47:51.199,,,,,,,,,,,,,,,,,,,,,,,,,,,,,,,,,,,,,,/muse/elements/blink
2023-08-31 16:47:51.359,,,,,,,,,,,,,,,,,,,,,,,,,,,,,,,,,,,,,,/muse/elements/blink
2023-08-31 16:47:51.696,,,,,,,,,,,,,,,,,,,,,,,,,,,,,,,,,,,,,,/muse/elements/blink
2023-08-31 16:47:51.933,1.401967505948654,0.7451888110379838,0.9000647854244758,1.159183884745261,1.386512129443834,-0.1326593951477382,0.7088281940926451,1.149119433399278,1.273507949423856,0.3821326621867332,0.4750357967179526,1.19676737343901,0.885836777713374,0.8985052269806669,0.9783299492392338,1.220628220770674,0.6641389506500464,0.6336428355942646,0.8956105079601663,1.248787765623109,875.9706959706959,804.6520146520147,761.5384615384615,813.1135531135532,690.6227106227107,-0.672791,0.132690,0.712158,0.785065,-4.478607,-1.428070,1,4,1,4,2,55.000000
2023-08-31 16:47:52.123,,,,,,,,,,,,,,,,,,,,,,,,,,,,,,,,,,,,,,/muse/elements/blink
2023-08-31 16:47:52.487,,,,,,,,,,,,,,,,,,,,,,,,,,,,,,,,,,,,,,/muse/elements/blink
2023-08-31 16:47:52.823,,,,,,,,,,,,,,,,,,,,,,,,,,,,,,,,,,,,,,/muse/elements/blink
2023-08-31 16:47:52.934,1.401967505948654,0.7451888110379838,0.9000647854244758,1.159183884745261,1.386512129443834,-0.1326593951477382,0.7088281940926451,1.149119433399278,1.273507949423856,0.3821326621867332,0.4750357967179526,1.19676737343901,0.885836777713374,0.8985052269806669,0.9783299492392338,1.220628220770674,0.6641389506500464,0.6336428355942646,0.8956105079601663,1.248787765623109,336.043956043956,815.1282051282052,788.1318681318681,758.7179487179487,197.8388278388279,-0.677124,0.152100,0.721741,14.347992,-12.448883,-14.213409,1,4,1,1,2,55.000000
2023-08-31 16:47:53.092,,,,,,,,,,,,,,,,,,,,,,,,,,,,,,,,,,,,,,/muse/elements/blink
2023-08-31 16:47:53.702,,,,,,,,,,,,,,,,,,,,,,,,,,,,,,,,,,,,,,/muse/elements/blink
2023-08-31 16:47:53.934,1.401967505948654,0.7451888110379838,0.9000647854244758,1.159183884745261,1.386512129443834,-0.1326593951477382,0.7088281940926451,1.149119433399278,1.273507949423856,0.3821326621867332,0.4750357967179526,1.19676737343901,0.885836777713374,0.8985052269806669,0.9783299492392338,1.220628220770674,0.6641389506500464,0.6336428355942646,0.8956105079601663,1.248787765623109,460.952380952381,853.4065934065934,780.0732600732601,751.0622710622711,30.62271062271062,-0.565918,0.092957,0.804382,3.484192,-14.116211,2.684174,1,4,1,1,2,60.000000
2023-08-31 16:47:54.238,,,,,,,,,,,,,,,,,,,,,,,,,,,,,,,,,,,,,,/muse/elements/blink
2023-08-31 16:47:54.935,1.401967505948654,0.7451888110379838,0.9000647854244758,1.159183884745261,1.386512129443834,-0.1326593951477382,0.7088281940926451,1.149119433399278,1.273507949423856,0.3821326621867332,0.4750357967179526,1.19676737343901,0.885836777713374,0.8985052269806669,0.9783299492392338,1.220628220770674,0.6641389506500464,0.6336428355942646,0.8956105079601663,1.248787765623109,1624.615384615385,728.901098901099,803.4432234432235,724.0659340659341,221.2087912087912,-0.254333,0.107544,0.949341,2.758942,-10.213318,-14.594727,1,4,1,1,2,60.000000
2023-08-31 16:47:55.450,,,,,,,,,,,,,,,,,,,,,,,,,,,,,,,,,,,,,,/muse/elements/blink
2023-08-31 16:47:55.633,,,,,,,,,,,,,,,,,,,,,,,,,,,,,,,,,,,,,,/muse/elements/jaw_clench
2023-08-31 16:47:55.934,1.401967505948654,0.7451888110379838,0.9000647854244758,1.159183884745261,1.386512129443834,-0.1326593951477382,0.7088281940926451,1.149119433399278,1.273507949423856,0.3821326621867332,0.4750357967179526,1.19676737343901,0.885836777713374,0.8985052269806669,0.9783299492392338,1.220628220770674,0.6641389506500464,0.6336428355942646,0.8956105079601663,1.248787765623109,831.2454212454213,815.5311355311355,835.6776556776557,738.974358974359,0,-0.428467,0.086914,0.884521,0.964508,-0.657959,0.553284,1,2,1,1,2,60.000000
2023-08-31 16:47:56.037,,,,,,,,,,,,,,,,,,,,,,,,,,,,,,,,,,,,,,/muse/elements/blink
2023-08-31 16:47:56.934,1.401967505948654,0.7451888110379838,0.9000647854244758,1.159183884745261,1.386512129443834,-0.1326593951477382,0.7088281940926451,1.149119433399278,1.273507949423856,0.3821326621867332,0.4750357967179526,1.19676737343901,0.885836777713374,0.8985052269806669,0.9783299492392338,1.220628220770674,0.6641389506500464,0.6336428355942646,0.8956105079601663,1.248787765623109,1461.428571428572,801.025641025641,808.2783882783883,767.985347985348,71.31868131868131,-0.474548,0.086182,0.861389,-0.254211,-4.224396,-1.809387,1,4,1,1,2,60.000000
2023-08-31 16:47:57.069,,,,,,,,,,,,,,,,,,,,,,,,,,,,,,,,,,,,,,/muse/elements/blink
2023-08-31 16:47:57.069,,,,,,,,,,,,,,,,,,,,,,,,,,,,,,,,,,,,,,/muse/elements/jaw_clench
2023-08-31 16:47:57.703,,,,,,,,,,,,,,,,,,,,,,,,,,,,,,,,,,,,,,/muse/elements/jaw_clench
2023-08-31 16:47:57.886,,,,,,,,,,,,,,,,,,,,,,,,,,,,,,,,,,,,,,/muse/elements/jaw_clench
2023-08-31 16:47:57.943,1.401967505948654,0.7451888110379838,0.9000647854244758,1.159183884745261,1.386512129443834,-0.1326593951477382,0.7088281940926451,1.149119433399278,1.273507949423856,0.3821326621867332,0.4750357967179526,1.19676737343901,0.885836777713374,0.8985052269806669,0.9783299492392338,1.220628220770674,0.6641389506500464,0.6336428355942646,0.8956105079601663,1.248787765623109,2.417582417582418,764.7619047619048,778.0586080586081,772.4175824175825,270.7692307692308,-0.377930,0.109070,0.905884,-1.128998,3.028107,11.506805,1,4,1,1,2,60.000000
2023-08-31 16:47:58.478,,,,,,,,,,,,,,,,,,,,,,,,,,,,,,,,,,,,,,/muse/elements/jaw_clench
2023-08-31 16:47:58.679,,,,,,,,,,,,,,,,,,,,,,,,,,,,,,,,,,,,,,/muse/elements/jaw_clench
2023-08-31 16:47:58.907,,,,,,,,,,,,,,,,,,,,,,,,,,,,,,,,,,,,,,/muse/elements/jaw_clench
2023-08-31 16:47:58.933,1.401967505948654,0.7451888110379838,0.9000647854244758,1.159183884745261,1.386512129443834,-0.1326593951477382,0.7088281940926451,1.149119433399278,1.273507949423856,0.3821326621867332,0.4750357967179526,1.19676737343901,0.885836777713374,0.8985052269806669,0.9783299492392338,1.220628220770674,0.6641389506500464,0.6336428355942646,0.8956105079601663,1.248787765623109,1624.615384615385,703.5164835164835,772.014652014652,832.0512820512821,171.2454212454213,-0.450928,0.151367,0.867188,5.592651,-12.209625,2.310333,1,4,1,1,2,60.000000
2023-08-31 16:47:59.111,,,,,,,,,,,,,,,,,,,,,,,,,,,,,,,,,,,,,,/muse/elements/jaw_clench
2023-08-31 16:47:59.933,1.401967505948654,0.7451888110379838,0.9000647854244758,1.159183884745261,1.386512129443834,-0.1326593951477382,0.7088281940926451,1.149119433399278,1.273507949423856,0.3821326621867332,0.4750357967179526,1.19676737343901,0.885836777713374,0.8985052269806669,0.9783299492392338,1.220628220770674,0.6641389506500464,0.6336428355942646,0.8956105079601663,1.248787765623109,567.7289377289377,817.5457875457876,796.1904761904763,842.1245421245421,870.3296703296703,-0.429443,0.133423,0.883423,1.600037,-1.532745,-2.549591,1,4,1,1,2,60.000000
2023-08-31 16:48:00.224,,,,,,,,,,,,,,,,,,,,,,,,,,,,,,,,,,,,,,/muse/elements/jaw_clench
2023-08-31 16:48:00.933,1.401967505948654,0.7451888110379838,0.9000647854244758,1.159183884745261,1.386512129443834,-0.1326593951477382,0.7088281940926451,1.149119433399278,1.273507949423856,0.3821326621867332,0.4750357967179526,1.19676737343901,0.885836777713374,0.8985052269806669,0.9783299492392338,1.220628220770674,0.6641389506500464,0.6336428355942646,0.8956105079601663,1.248787765623109,928.7545787545788,797.8021978021978,723.2600732600732,646.3003663003664,393.6630036630037,-0.458191,0.131653,0.874329,4.987030,4.859924,-8.291779,1,4,1,1,2,60.000000
2023-08-31 16:48:01.733,,,,,,,,,,,,,,,,,,,,,,,,,,,,,,,,,,,,,,/muse/elements/blink
2023-08-31 16:48:01.933,1.401967505948654,0.7451888110379838,0.9000647854244758,1.159183884745261,1.386512129443834,-0.1326593951477382,0.7088281940926451,1.149119433399278,1.273507949423856,0.3821326621867332,0.4750357967179526,1.19676737343901,0.885836777713374,0.8985052269806669,0.9783299492392338,1.220628220770674,0.6641389506500464,0.6336428355942646,0.8956105079601663,1.248787765623109,934.7985347985348,830.8424908424909,763.1501831501831,788.5347985347986,787.3260073260074,-0.524658,0.119751,0.832397,-6.856232,6.968384,25.264130,1,2,1,1,2,60.000000
2023-08-31 16:48:02.326,,,,,,,,,,,,,,,,,,,,,,,,,,,,,,,,,,,,,,/muse/elements/jaw_clench
2023-08-31 16:48:02.753,,,,,,,,,,,,,,,,,,,,,,,,,,,,,,,,,,,,,,/muse/elements/jaw_clench
2023-08-31 16:48:02.934,1.401967505948654,0.7451888110379838,0.9000647854244758,1.159183884745261,1.386512129443834,-0.1326593951477382,0.7088281940926451,1.149119433399278,1.273507949423856,0.3821326621867332,0.4750357967179526,1.19676737343901,0.885836777713374,0.8985052269806669,0.9783299492392338,1.220628220770674,0.6641389506500464,0.6336428355942646,0.8956105079601663,1.248787765623109,373.919413919414,799.8168498168499,842.5274725274726,880.4029304029305,1346.593406593407,-0.628601,0.120544,0.760193,1.502838,-12.104950,-0.971985,1,2,1,1,2,60.000000
2023-08-31 16:48:02.938,,,,,,,,,,,,,,,,,,,,,,,,,,,,,,,,,,,,,,/muse/elements/jaw_clench
2023-08-31 16:48:03.550,,,,,,,,,,,,,,,,,,,,,,,,,,,,,,,,,,,,,,/muse/elements/blink
2023-08-31 16:48:03.933,1.401967505948654,0.7728241170282889,0.961044111128716,1.159183884745261,1.386512129443834,0.2091464969916054,0.6669010211115693,1.149119433399278,1.273507949423856,0.5547378316601543,0.819468087958961,1.19676737343901,0.885836777713374,0.779461954923714,1.006970585396265,1.220628220770674,0.6641389506500464,0.7881034866134043,1.175470836372261,1.248787765623109,900.1465201465202,785.3113553113553,786.9230769230769,847.3626373626374,1102.014652014652,-0.453613,0.114380,0.874207,10.026398,-7.790833,-9.727325,1,4,1,1,2,60.000000
2023-08-31 16:48:03.976,,,,,,,,,,,,,,,,,,,,,,,,,,,,,,,,,,,,,,/muse/elements/blink
2023-08-31 16:48:04.935,1.401967505948654,1.026987438833269,0.9450354996987518,1.159183884745261,1.386512129443834,0.5903072670494294,0.6096571637733493,1.149119433399278,1.273507949423856,0.7138612975718296,0.8465406021872893,1.19676737343901,0.885836777713374,0.7705344759362875,1.02793988463429,1.220628220770674,0.6641389506500464,0.8098967673453058,1.083594449491359,1.248787765623109,709.9633699633699,795.3846153846154,795.3846153846154,856.6300366300367,1198.717948717949,-0.430603,0.149902,0.875610,4.590759,-1.099091,2.033691,1,4,1,1,2,60.000000
2023-08-31 16:48:05.933,1.401967505948654,0.4821721821008787,0.4147119097111262,0.9475926623620056,1.386512129443834,-0.02812616884217747,-0.08085288614965723,0.9539325600305076,1.273507949423856,0.4246954928384151,0.2960591951209118,1.379009475557039,0.885836777713374,0.7575364098145916,0.8979178850618079,1.174103469063273,0.6641389506500464,0.8573755206395491,0.8404850096813413,1.297736672028227,176.0805860805861,801.025641025641,790.1465201465202,854.6153846153846,1557.728937728938,-0.477844,0.191223,0.832764,0.837402,0.814972,0.142059,1,4,1,1,1,60.000000
2023-08-31 16:48:06.937,1.401967505948654,0.1657363439628122,0.5218845441326005,0.8014989030960868,1.386512129443834,-0.2132390171707234,-0.3619782485953145,0.4943401594513117,1.273507949423856,0.5072621786042446,0.44744386885706,1.130783472749451,0.885836777713374,0.763240415445397,0.8925530154173721,1.22015588917678,0.6641389506500464,0.4996983545954225,0.777344962485554,1.085077072840168,393.6630036630037,798.6080586080586,792.5641025641025,839.7069597069598,1436.849816849817,-0.509460,0.201843,0.823792,-1.009369,-9.465637,-3.536530,1,4,1,1,1,60.000000
2023-08-31 16:48:07.937,1.401967505948654,0.002936628365164846,0.7532681100288086,0.7065733959562016,1.386512129443834,0.2092223068757547,-0.2069340811607883,0.418206060006336,1.273507949423856,0.4431498447428865,0.5066776172430537,0.9800113416257283,0.885836777713374,0.561784969985873,0.8003059690024581,1.18630033395987,0.6641389506500464,0.481674088223289,0.7045111846367569,0.9450801990084702,990.4029304029305,809.4871794871796,791.7582417582418,885.2380952380953,1561.758241758242,-0.504578,0.152771,0.835449,8.441315,-0.097198,2.826233,1,4,1,1,1,60.000000
2023-08-31 16:48:08.418,,,,,,,,,,,,,,,,,,,,,,,,,,,,,,,,,,,,,,/muse/elements/blink
2023-08-31 16:48:08.933,1.401967505948654,0.2361944271357107,0.4636170169947216,0.5307781792966961,1.386512129443834,0.3210904786456228,-0.3996453519789057,0.5483532534230083,1.273507949423856,0.5607185791619655,0.5461521039240221,1.048902099729991,0.885836777713374,0.7123509041709426,0.8796353813819819,1.164995523852373,0.6641389506500464,0.4834696844754575,0.7530793247176587,0.9885716217495036,871.1355311355312,776.8498168498169,780.4761904761905,804.2490842490843,1011.758241758242,-0.487000,0.226318,0.827026,2.601929,-6.220703,-0.366364,1,4,1,1,1,60.000000
2023-08-31 16:48:09.171,,,,,,,,,,,,,,,,,,,,,,,,,,,,,,,,,,,,,,/muse/elements/jaw_clench
2023-08-31 16:48:09.933,1.401967505948654,0.5663656681196878,0.4843322962762486,0.5307781792966961,1.386512129443834,-0.02444787499282128,-0.4641106628922733,0.5483532534230083,1.273507949423856,0.6526414441897623,0.5337146998110003,1.048902099729991,0.885836777713374,0.8076484050850457,0.8650836401560656,1.164995523852373,0.6641389506500464,0.6102281718658342,0.8674128033996187,0.9885716217495036,807.8754578754579,820.7692307692308,770,843.7362637362637,1369.96336996337,-0.468506,0.230591,0.838257,3.259888,-1.899109,2.317810,1,4,1,1,1,60.000000
2023-08-31 16:48:10.933,1.401967505948654,0.8574563132480203,0.2798434470851239,0.5307781792966961,1.386512129443834,-0.151737228952622,0.2171963134622987,0.5483532534230083,1.273507949423856,0.576725714961545,0.5331213843396541,1.048902099729991,0.885836777713374,0.7443597455909764,0.780579330762991,1.164995523852373,0.6641389506500464,0.6571281948797327,0.6139763128603497,0.9885716217495036,970.2564102564103,810.2930402930403,788.5347985347986,786.1172161172161,1189.85347985348,-0.471802,0.179688,0.836609,1.614990,-1.899109,-5.562744,1,4,1,1,2,60.000000
2023-08-31 16:48:11.943,1.401967505948654,1.040886657197556,0.1519036370370265,0.5307781792966961,1.386512129443834,0.3407804077800725,0.2762659858597724,0.5483532534230083,1.273507949423856,1.021175752184779,0.6124453300816436,1.048902099729991,0.885836777713374,0.6890861078871428,0.6837873939264706,1.164995523852373,0.6641389506500464,0.486594349828853,0.6765283228288865,0.9885716217495036,710.3663003663004,811.0989010989011,801.025641025641,759.1208791208792,724.4688644688645,-0.488159,0.187500,0.832642,-0.904694,-3.768311,-4.463654,1,2,1,1,2,60.000000
2023-08-31 16:48:12.935,1.401967505948654,0.8477225981413833,0.6955037398911216,0.5307781792966961,1.386512129443834,0.2826410071807562,0.3960366874330822,0.5483532534230083,1.273507949423856,0.9020032187198114,0.6330448885227684,1.048902099729991,0.885836777713374,0.7243271862185569,0.844762785381268,1.164995523852373,0.6641389506500464,0.5623123580264526,0.6088626980876113,0.9885716217495036,983.5531135531136,794.5787545787546,783.2967032967033,799.0109890109891,1031.501831501831,-0.503845,0.096313,0.850098,2.908478,-4.396362,2.557068,1,4,1,1,2,60.000000
2023-08-31 16:48:13.933,1.401967505948654,0.6750147732572783,0.4512566725452382,0.5474823362018085,1.386512129443834,0.3492989477647701,0.1882960258398277,0.1081742279092708,1.273507949423856,0.716831738410268,0.5118497016254095,0.4796273210932431,0.885836777713374,0.5880993681081946,0.8622202952032559,1.031585597737925,0.6641389506500464,0.5538723084005714,0.6023131140048394,0.8854158087008234,384.3956043956044,811.9047619047619,802.6373626373627,738.974358974359,455.3113553113553,-0.467102,0.141418,0.851318,1.697235,-4.553375,1.457977,1,2,1,1,1,60.000000
2023-08-31 16:48:14.937,1.401967505948654,0.9163031904881326,0.3714057352182021,0.6968721495527678,1.386512129443834,0.483973117006588,0.2782605175250158,0.4333689046432453,1.273507949423856,0.4974037518148962,0.1460132876825611,0.7701190827728389,0.885836777713374,0.5608380719271614,0.6943072258530822,0.9156263303294533,0.6641389506500464,0.2533963805353296,0.4755936388467636,0.6535724092583729,828.8278388278388,824.3956043956044,807.4725274725275,720.8424908424909,378.3516483516484,-0.507141,0.149231,0.853821,5.764618,-1.143951,-6.407623,1,4,1,1,1,60.000000
2023-08-31 16:48:15.942,1.401967505948654,1.312621935605774,0.5926457276732299,0.8289336421124767,1.386512129443834,0.7472541461133129,0.5777226136596936,0.7132343195127142,1.273507949423856,0.5398462491858507,0.4615908329226469,1.003317131805119,0.885836777713374,0.6339630103036461,0.7570753038894162,1.182774112150365,0.6641389506500464,0.1961977500664435,0.8379784444814485,0.7469061513344304,1625.824175824176,801.4285714285714,811.9047619047619,732.1245421245421,652.3443223443223,-0.541992,0.136963,0.807678,1.293488,-10.430145,-0.239258,1,4,1,1,1,60.000000
2023-08-31 16:48:16.672,,,,,,,,,,,,,,,,,,,,,,,,,,,,,,,,,,,,,,/muse/elements/blink
2023-08-31 16:48:16.933,1.401967505948654,0.6501053578112594,0.4941065321068134,0.732968192688315,1.386512129443834,-0.1078634876025826,0.2850320577293994,0.5282582314039491,1.273507949423856,-0.1772851772946192,0.4770715661343151,0.6082925480972579,0.885836777713374,0.7400371174772505,0.9370138496289724,1.168586056900499,0.6641389506500464,0.7889911097728604,0.9286098330158973,0.7945004714244986,772.014652014652,809.8901098901099,793.7728937728938,671.2820512820513,92.27106227106228,-0.488342,0.170044,0.846680,3.768311,-4.478607,-0.822449,1,4,1,1,1,60.000000
2023-08-31 16:48:17.108,,,,,,,,,,,,,,,,,,,,,,,,,,,,,,,,,,,,,,/muse/elements/jaw_clench
2023-08-31 16:48:17.933,1.401967505948654,0.3206642900922219,0.6390464434823866,0.7753141286812126,1.386512129443834,0.08508019206028601,0.2577049698846707,0.5660725250843476,1.273507949423856,0.5035878709231183,0.6733527163980538,0.5372534978094076,0.885836777713374,0.6570592689386721,0.9043990770869357,1.118363891528361,0.6641389506500464,0.5590388013269646,0.9075430932608521,0.7556458726962488,530.2564102564103,799.4139194139194,795.7875457875458,893.2967032967033,1574.249084249084,-0.495483,0.166931,0.834473,1.689758,-2.422485,-1.614990,1,4,1,1,1,60.000000
2023-08-31 16:48:18.592,,,,,,,,,,,,,,,,,,,,,,,,,,,,,,,,,,,,,,/muse/elements/blink
2023-08-31 16:48:18.933,1.401967505948654,0.7149779150830341,0.6953100407915761,0.706811905060975,1.386512129443834,0.303749639820972,0.412450714078093,0.4551976640231483,1.273507949423856,0.5034249675331928,0.6369427897506531,0.8167504871665261,0.885836777713374,0.6608639852994479,0.8729729565400254,1.017867157579204,0.6641389506500464,0.5517505624987784,0.813053355026592,0.9197959682264624,1172.930402930403,823.992673992674,811.9047619047619,880.4029304029305,1291.794871794872,-0.486816,0.162476,0.846619,2.930908,-6.714172,0.485992,1,4,1,1,1,60.000000
2023-08-31 16:48:19.933,1.401967505948654,0.448994694204312,0.4864756644431617,0.5098647983047505,1.386512129443834,-0.1275169387098057,0.08648691461551399,0.4693321346208827,1.273507949423856,0.2154709585666276,0.4171695775646966,0.7933412580604086,0.885836777713374,0.7163195178890615,0.9892192481158206,0.8018350167298075,0.6641389506500464,0.5193988517329011,0.6248866382267374,0.8196937437299777,0,769.1941391941392,807.0695970695971,884.0293040293041,1550.476190476191,-0.499023,0.159607,0.842346,-1.271057,-3.439331,1.884155,1,4,1,1,1,60.000000
2023-08-31 16:48:20.618,,,,,,,,,,,,,,,,,,,,,,,,,,,,,,,,,,,,,,/muse/elements/blink
2023-08-31 16:48:20.770,,,,,,,,,,,,,,,,,,,,,,,,,,,,,,,,,,,,,,/muse/elements/jaw_clench
2023-08-31 16:48:20.934,1.401967505948654,0.1725657556128413,0.3890109379729198,0.7764090657377239,1.386512129443834,-0.1489746144864529,-0.01792630900536499,0.7827882606656764,1.273507949423856,0.2630421310767838,0.4436733303748475,1.363856539910374,0.885836777713374,0.6456009496466167,0.9730333000127492,0.9880084648931956,0.6641389506500464,0.4782190234330129,0.6517450787147008,0.8887692765004502,325.970695970696,768.3882783882784,795.3846153846154,837.6923076923077,1414.688644688645,-0.687317,0.133240,0.716309,-1.727142,16.404114,16.882629,1,4,1,1,1,60.000000
2023-08-31 16:48:20.947,,,,,,,,,,,,,,,,,,,,,,,,,,,,,,,,,,,,,,/muse/elements/jaw_clench
2023-08-31 16:48:21.232,,,,,,,,,,,,,,,,,,,,,,,,,,,,,,,,,,,,,,/muse/elements/blink
2023-08-31 16:48:21.932,1.401967505948654,0.2868558694010255,0.1651317058642088,1.108812773966262,1.386512129443834,0.1199967665210303,-0.2646710127921692,1.129768393478458,1.273507949423856,0.2154700486011449,-0.03034605138320603,1.363856539910374,0.885836777713374,0.628389141797484,0.9555389001331767,1.321228198184249,0.6641389506500464,0.4502528069122742,0.6572879335679485,1.20926987713478,356.1904761904762,788.5347985347986,825.2014652014652,826.8131868131868,1052.051282051282,-0.771301,0.133362,0.627991,4.314117,-3.185120,-0.822449,1,4,1,1,1,60.000000
2023-08-31 16:48:21.975,,,,,,,,,,,,,,,,,,,,,,,,,,,,,,,,,,,,,,/muse/elements/blink
2023-08-31 16:48:22.942,1.401967505948654,0.2868558694010255,0.1651317058642088,1.127225378720215,1.386512129443834,0.1199967665210303,-0.2646710127921692,1.145442782664926,1.273507949423856,0.2154700486011449,-0.03034605138320603,1.349051326581022,0.885836777713374,0.628389141797484,0.9555389001331767,1.351370883800706,0.6641389506500464,0.4502528069122742,0.6572879335679485,1.26563155072967,414.2124542124542,836.8864468864469,774.0293040293041,855.8241758241759,1417.509157509158,-0.657227,0.103394,0.740540,-3.671112,1.839294,9.413300,1,4,1,1,1,60.000000
2023-08-31 16:48:23.062,,,,,,,,,,,,,,,,,,,,,,,,,,,,,,,,,,,,,,/muse/elements/blink
2023-08-31 16:48:23.388,,,,,,,,,,,,,,,,,,,,,,,,,,,,,,,,,,,,,,/muse/elements/jaw_clench
2023-08-31 16:48:23.932,1.401967505948654,0.2868558694010255,0.5780064528278319,1.127225378720215,1.386512129443834,0.1199967665210303,0.3808919792295825,1.145442782664926,1.273507949423856,0.2154700486011449,0.3633774290242352,1.349051326581022,0.885836777713374,0.628389141797484,0.9416623631476967,1.351370883800706,0.6641389506500464,0.4502528069122742,0.9718857607263721,1.26563155072967,1610.915750915751,929.5604395604396,822.3809523809524,843.7362637362637,997.6556776556777,-0.637878,0.132568,0.752991,-1.173859,-21.189270,11.716156,1,4,1,1,2,60.000000
2023-08-31 16:48:24.281,,,,,,,,,,,,,,,,,,,,,,,,,,,,,,,,,,,,,,/muse/elements/blink
2023-08-31 16:48:24.933,1.401967505948654,0.2868558694010255,0.3382280931748675,1.542958548960018,1.386512129443834,0.1199967665210303,-0.4787649980479644,1.229408534035353,1.273507949423856,0.2154700486011449,0.1865248492508138,1.515660136263514,0.885836777713374,0.628389141797484,1.027598111435384,1.10193296608376,0.6641389506500464,0.4502528069122742,0.8835688102027643,1.367824517558393,1095.164835164835,799.8168498168499,796.1904761904763,852.6007326007326,1430,-0.509155,0.128723,0.832703,5.667419,-10.946045,-7.783356,1,4,1,1,1,65.000000
2023-08-31 16:48:25.227,,,,,,,,,,,,,,,,,,,,,,,,,,,,,,,,,,,,,,/muse/elements/blink
2023-08-31 16:48:25.491,,,,,,,,,,,,,,,,,,,,,,,,,,,,,,,,,,,,,,/muse/elements/blink
2023-08-31 16:48:25.642,,,,,,,,,,,,,,,,,,,,,,,,,,,,,,,,,,,,,,/muse/elements/jaw_clench
2023-08-31 16:48:25.933,1.401967505948654,0.2868558694010255,0.5523063802586491,1.397162788200378,1.386512129443834,0.1199967665210303,0.1181941698930403,1.104872649160839,1.273507949423856,0.2154700486011449,0.4650774025373136,1.555774717759085,0.885836777713374,0.628389141797484,1.04993956714814,1.194297620085064,0.6641389506500464,0.4502528069122742,0.9221416728088857,1.348251995901529,527.032967032967,801.4285714285714,822.7838827838829,681.7582417582418,328.7912087912088,-0.478577,0.238708,0.841309,-2.444916,0.186920,-7.544098,1,4,1,1,1,65.000000
2023-08-31 16:48:26.516,,,,,,,,,,,,,,,,,,,,,,,,,,,,,,,,,,,,,,/muse/elements/jaw_clench
2023-08-31 16:48:26.933,1.401967505948654,0.2868558694010255,0.5523063802586491,0.7142267665110813,1.386512129443834,0.1199967665210303,0.1181941698930403,0.750756244542785,1.273507949423856,0.2154700486011449,0.4650774025373136,1.013363585158752,0.885836777713374,0.628389141797484,1.04993956714814,1.324001869815195,0.6641389506500464,0.4502528069122742,0.9221416728088857,1.269268104464242,571.7582417582418,806.2637362637363,801.8315018315019,742.6007326007326,653.1501831501831,-0.552551,0.250854,0.777466,0.388794,-2.183228,1.099091,1,4,1,1,1,65.000000
2023-08-31 16:48:27.472,,,,,,,,,,,,,,,,,,,,,,,,,,,,,,,,,,,,,,/muse/elements/blink
2023-08-31 16:48:27.939,1.401967505948654,0.1508423854115406,0.08925230866719833,0.30809848692302,1.386512129443834,-0.229083624556689,0.1028071936705958,0.3782549650870819,1.273507949423856,0.1981014512505497,0.5299135821945451,0.9657818638160655,0.885836777713374,0.8245418927937187,0.8704177465964469,1.187019780587827,0.6641389506500464,0.6516446918880393,0.7518373713685875,0.9941425123486674,1016.996336996337,794.5787545787546,826.8131868131868,790.952380952381,987.985347985348,-0.535400,0.254578,0.797180,3.244934,-0.605621,1.779480,1,4,1,1,1,65.000000
2023-08-31 16:48:28.942,1.401967505948654,0.1261375727489982,-0.02988824203998073,0.5699945045383528,1.386512129443834,-0.3112715887257404,0.1741716113416731,0.704758936803267,1.273507949423856,0.215422985668833,0.6132216008774993,1.108365300739299,0.885836777713374,0.7430063292741961,0.8302961240246818,1.206600935319107,0.6641389506500464,0.6784375957248104,0.8121071624698164,0.9977715178052805,802.6373626373627,886.8498168498169,819.96336996337,745.8241758241759,736.5567765567765,-0.539490,0.245605,0.789917,2.766418,-3.738403,-0.179443,1,2,1,1,1,65.000000
2023-08-31 16:48:29.933,1.401967505948654,0.08741616242184506,0.2158920022986655,0.8444184847820443,1.386512129443834,-0.3262170037263663,0.3652976372016326,0.8244856640294886,1.273507949423856,0.1186202170511333,0.4755437705474544,1.002593499738363,0.885836777713374,0.6470288652887919,0.7994748066677322,1.257838493124922,0.6641389506500464,0.703963196511241,0.760257865768347,0.949483743589332,284.0659340659341,777.6556776556777,811.9047619047619,721.2454212454213,277.6190476190476,-0.541931,0.139648,0.816528,4.029999,-3.244934,-0.299072,1,4,1,1,1,65.000000
2023-08-31 16:48:30.784,,,,,,,,,,,,,,,,,,,,,,,,,,,,,,,,,,,,,,/muse/elements/jaw_clench
2023-08-31 16:48:30.932,1.401967505948654,0.08741616242184506,0.2202105126126962,0.8938207908115545,1.386512129443834,-0.3262170037263663,0.1879508205010346,0.702760427208627,1.273507949423856,0.1186202170511333,0.394732054324185,0.9576117038181934,0.885836777713374,0.6470288652887919,0.8008621062878578,1.149785678735248,0.6641389506500464,0.703963196511241,0.774015374378861,0.8809271652240478,329.5970695970696,820.7692307692308,806.2637362637363,664.0293040293041,0,-0.780212,0.116394,0.598389,7.775879,-4.530945,0.201874,1,4,1,1,1,65.000000
2023-08-31 16:48:31.814,,,,,,,,,,,,,,,,,,,,,,,,,,,,,,,,,,,,,,/muse/elements/blink
2023-08-31 16:48:31.935,1.401967505948654,0.08741616242184506,0.2202105126126962,0.8938207908115545,1.386512129443834,-0.3262170037263663,0.1879508205010346,0.702760427208627,1.273507949423856,0.1186202170511333,0.394732054324185,0.9576117038181934,0.885836777713374,0.6470288652887919,0.8008621062878578,1.149785678735248,0.6641389506500464,0.703963196511241,0.774015374378861,0.8809271652240478,779.2673992673992,828.8278388278388,803.4432234432235,695.4578754578755,392.051282051282,-0.579773,0.126465,0.790466,2.975769,-8.306732,-2.579498,1,4,1,1,2,65.000000
2023-08-31 16:48:32.340,,,,,,,,,,,,,,,,,,,,,,,,,,,,,,,,,,,,,,/muse/elements/jaw_clench
2023-08-31 16:48:32.937,1.401967505948654,1.009192538459279,0.2202105126126962,1.23438552503451,1.386512129443834,0.8340747144789438,0.1879508205010346,1.356935350837727,1.273507949423856,0.9307727661798318,0.394732054324185,1.406898195349313,0.885836777713374,0.9252530322028425,0.8008621062878578,1.172756934597816,0.6641389506500464,0.6166970879460982,0.774015374378861,0.8210497052146483,718.4249084249085,796.5934065934066,806.2637362637363,700.2930402930403,112.014652014652,-0.540466,0.158691,0.805725,2.527161,0.957031,-0.882263,1,4,1,1,1,65.000000
2023-08-31 16:48:33.236,,,,,,,,,,,,,,,,,,,,,,,,,,,,,,,,,,,,,,/muse/elements/blink
2023-08-31 16:48:33.743,,,,,,,,,,,,,,,,,,,,,,,,,,,,,,,,,,,,,,/muse/elements/blink
2023-08-31 16:48:33.934,1.401967505948654,0.9883094197914556,0.2202105126126962,1.23438552503451,1.386512129443834,0.8897494940520649,0.1879508205010346,1.356935350837727,1.273507949423856,0.9099840997820738,0.394732054324185,1.406898195349313,0.885836777713374,0.9043632803651492,0.8008621062878578,1.172756934597816,0.6641389506500464,0.6085622915927664,0.774015374378861,0.8210497052146483,430.3296703296704,825.2014652014652,877.1794871794872,787.7289377289378,468.2051282051282,-0.548584,0.137817,0.816040,1.143951,-3.132782,0.074768,1,4,1,1,1,65.000000
2023-08-31 16:48:34.932,1.401967505948654,0.9883094197914556,0.2202105126126962,1.23438552503451,1.386512129443834,0.8897494940520649,0.1879508205010346,1.356935350837727,1.273507949423856,0.9099840997820738,0.394732054324185,1.406898195349313,0.885836777713374,0.9043632803651492,0.8008621062878578,1.172756934597816,0.6641389506500464,0.6085622915927664,0.774015374378861,0.8210497052146483,964.6153846153846,830.4395604395604,820.3663003663004,718.8278388278388,128.9377289377289,-0.548462,0.139282,0.807800,1.061707,-4.172058,-1.734619,1,4,1,1,1,65.000000
2023-08-31 16:48:35.939,1.401967505948654,0.9883094197914556,0.2202105126126962,1.23438552503451,1.386512129443834,0.8897494940520649,0.1879508205010346,1.356935350837727,1.273507949423856,0.9099840997820738,0.394732054324185,1.406898195349313,0.885836777713374,0.9043632803651492,0.8008621062878578,1.172756934597816,0.6641389506500464,0.6085622915927664,0.774015374378861,0.8210497052146483,962.1978021978023,799.8168498168499,786.5201465201466,704.3223443223443,0,-0.559998,0.145691,0.803040,2.198181,-3.342133,-1.024323,1,2,1,1,2,55.000000
2023-08-31 16:48:36.884,,,,,,,,,,,,,,,,,,,,,,,,,,,,,,,,,,,,,,/muse/elements/blink
2023-08-31 16:48:36.939,1.401967505948654,0.7400018501463503,0.7005368674515254,1.23438552503451,1.386512129443834,0.4235964412756767,0.1110588096011382,1.356935350837727,1.273507949423856,0.7239702125972627,0.5763377951586125,1.406898195349313,0.885836777713374,0.7607271143655745,0.80642603956424,1.172756934597816,0.6641389506500464,0.7026496856330136,0.76925578996486,0.8210497052146483,868.7179487179487,809.4871794871796,833.6630036630037,751.0622710622711,320.3296703296704,-0.555359,0.140686,0.806396,2.011261,-3.372040,-1.308441,1,2,1,1,2,55.000000
2023-08-31 16:48:37.933,1.401967505948654,0.8649122659078633,1.062995742352024,1.23438552503451,1.386512129443834,0.5169000804843115,0.4384250407849209,1.356935350837727,1.273507949423856,0.7061612142523337,0.5221199416023784,1.406898195349313,0.885836777713374,0.7733707260893897,0.7289884435967745,1.172756934597816,0.6641389506500464,0.6950699900080932,0.8372548764530489,0.8210497052146483,587.0695970695971,797.8021978021978,799.8168498168499,707.1428571428571,0,-0.568359,0.083435,0.808716,-5.540314,-2.743988,5.757141,1,4,1,1,2,55.000000
2023-08-31 16:48:38.942,1.401967505948654,0.4578523649119327,0.3334353248742812,1.23438552503451,1.386512129443834,-0.2196989326082564,0.03650557514496529,1.356935350837727,1.273507949423856,0.2162761108171733,0.2373034318844527,1.406898195349313,0.885836777713374,0.5716166884994434,0.7040081720822621,1.172756934597816,0.6641389506500464,0.4150090603674224,0.6640189359543872,0.8210497052146483,1202.344322344322,811.0989010989011,810.6959706959707,701.5018315018315,0,-0.569824,0.086975,0.805298,2.691650,0.598145,-0.171967,1,4,1,1,2,55.000000
2023-08-31 16:48:39.936,1.401967505948654,0.4862002655068446,0.1661007974905182,0.7442705315386444,1.386512129443834,0.07532855095079467,-0.02863550088873517,0.7973782689803753,1.273507949423856,0.4853100612206684,0.3843576558864195,1.132646693251584,0.885836777713374,0.6777585165821181,0.8472752777489327,1.005248921719695,0.6641389506500464,0.5813987587003566,0.7022305081192649,1.049665624071704,875.9706959706959,819.96336996337,784.1025641025641,743.0036630036631,92.67399267399267,-0.572083,0.112122,0.805786,0.388794,-6.796417,-1.517792,1,1,1,1,1,55.000000
2023-08-31 16:48:40.933,1.401967505948654,0.6845542198662437,0.04637955196561922,0.822937102140508,1.386512129443834,0.1780229041847514,0.1804106860661302,0.6873688728411029,1.273507949423856,0.5389198444990743,0.2686692683880657,1.219423471771909,0.885836777713374,0.7631908154892797,0.8606932214022205,0.9386938493138826,0.6641389506500464,0.5827479891829231,0.8056789310509698,0.9472695999868636,682.1611721611722,755.4945054945055,774.4322344322345,646.3003663003664,0,-0.522461,0.051819,0.841248,1.697235,-4.717865,-2.646790,1,1,1,1,1,55.000000
2023-08-31 16:48:41.051,,,,,,,,,,,,,,,,,,,,,,,,,,,,,,,,,,,,,,/muse/elements/blink
2023-08-31 16:48:41.933,1.401967505948654,0.5768569801775094,0.1238956878680369,0.8162597355733282,1.386512129443834,-0.05553940791195459,0.4834251486867522,0.5186799284012926,1.273507949423856,0.3429482545116263,0.07711816113572223,1.088461869203351,0.885836777713374,0.7366489737805071,0.7342469129229257,0.7529547629324839,0.6641389506500464,0.47963941839513,0.7761260239738864,0.8350352822984749,813.5164835164835,798.6080586080586,804.6520146520147,723.6630036630037,0,-0.515015,0.052063,0.850708,1.428070,-2.609406,-1.465454,1,1,1,1,1,55.000000
2023-08-31 16:48:42.935,1.401967505948654,0.6076878039185003,0.3668132967414405,0.7265596005792716,1.386512129443834,0.1976553853370436,0.2825604943408056,0.8509739222455751,1.273507949423856,0.52847813027178,0.5318402447394817,1.226768406640269,0.885836777713374,0.6591902002425569,0.7382166251312753,1.178710301924303,0.6641389506500464,0.7195273639540469,0.4561200413026404,1.023388827121127,146.2637362637363,792.5641025641025,800.2197802197802,692.2344322344322,0,-0.507385,0.088501,0.852600,2.990723,-3.461761,-2.093506,1,1,1,1,1,55.000000
2023-08-31 16:48:43.933,1.401967505948654,0.9449118823664919,0.3662098378493319,0.8187359795048237,1.386512129443834,0.3689808084990925,0.2164772016629142,0.9333814738284723,1.273507949423856,0.6936510929092574,0.5248852672513131,1.226768406640269,0.885836777713374,0.7269210378917533,0.6621745939177904,1.311353188044223,0.6641389506500464,0.698754209871995,0.3569046424405685,0.9857961945937233,526.2271062271062,811.0989010989011,826.8131868131868,740.5860805860806,128.5347985347985,-0.616455,0.048584,0.799438,28.651123,23.148193,-39.342957,1,1,1,1,1,55.000000
2023-08-31 16:48:44.114,,,,,,,,,,,,,,,,,,,,,,,,,,,,,,,,,,,,,,/muse/elements/blink
2023-08-31 16:48:44.114,,,,,,,,,,,,,,,,,,,,,,,,,,,,,,,,,,,,,,/muse/elements/jaw_clench
2023-08-31 16:48:44.932,1.401967505948654,1.058189952639767,0.4052218744893439,0.8187359795048237,1.386512129443834,0.4219355994121173,0.1883137622022966,0.9333814738284723,1.273507949423856,0.5376236291680027,0.5248852672513131,1.226768406640269,0.885836777713374,0.6343518345657611,0.6509828710002347,1.311353188044223,0.6641389506500464,0.3356925588183213,0.3660195893505762,0.9857961945937233,601.5750915750916,782.893772893773,818.7545787545788,724.8717948717949,150.6959706959707,-0.571045,0.148926,0.801819,5.734711,-8.471222,-5.316010,1,4,1,1,1,55.000000
2023-08-31 16:48:45.936,1.401967505948654,1.000616341460434,0.4052218744893439,0.8187359795048237,1.386512129443834,0.230791435629155,0.1883137622022966,0.9333814738284723,1.273507949423856,0.4436683178137121,0.5248852672513131,1.226768406640269,0.885836777713374,0.6242702845985105,0.6509828710002347,1.311353188044223,0.6641389506500464,0.3115867377446753,0.3660195893505762,0.9857961945937233,527.8388278388279,797.8021978021978,801.025641025641,679.3406593406594,0,-0.552246,0.132629,0.808594,1.869202,-4.964600,-2.706604,1,4,1,1,2,60.000000
2023-08-31 16:48:46.933,1.401967505948654,1.000616341460434,0.4052218744893439,0.8187359795048237,1.386512129443834,0.230791435629155,0.1883137622022966,0.9333814738284723,1.273507949423856,0.4436683178137121,0.5248852672513131,1.226768406640269,0.885836777713374,0.6242702845985105,0.6509828710002347,1.311353188044223,0.6641389506500464,0.3115867377446753,0.3660195893505762,0.9857961945937233,1098.791208791209,762.3443223443223,803.8461538461539,620.1098901098901,158.7545787545788,-0.356445,0.120789,0.914001,1.248627,-1.375732,0.717773,1,2,1,1,2,60.000000
2023-08-31 16:48:47.156,,,,,,,,,,,,,,,,,,,,,,,,,,,,,,,,,,,,,,/muse/elements/blink
2023-08-31 16:48:47.663,,,,,,,,,,,,,,,,,,,,,,,,,,,,,,,,,,,,,,/muse/elements/blink
2023-08-31 16:48:47.932,1.401967505948654,1.000616341460434,0.4052218744893439,0.8187359795048237,1.386512129443834,0.230791435629155,0.1883137622022966,0.9333814738284723,1.273507949423856,0.4436683178137121,0.5248852672513131,1.226768406640269,0.885836777713374,0.6242702845985105,0.6509828710002347,1.311353188044223,0.6641389506500464,0.3115867377446753,0.3660195893505762,0.9857961945937233,1034.725274725275,831.2454212454213,811.5018315018315,828.4249084249085,383.1868131868132,-0.373169,0.131836,0.900513,1.757050,-2.901001,0.239258,1,4,1,1,2,60.000000
2023-08-31 16:48:48.786,,,,,,,,,,,,,,,,,,,,,,,,,,,,,,,,,,,,,,/muse/elements/blink
2023-08-31 16:48:48.933,1.401967505948654,1.000616341460434,0.5781764337470863,0.8187359795048237,1.386512129443834,0.230791435629155,0.06696688382277223,0.9333814738284723,1.273507949423856,0.4436683178137121,0.5807391183328219,1.226768406640269,0.885836777713374,0.6242702845985105,0.658503264160355,1.311353188044223,0.6641389506500464,0.3115867377446753,0.7070379847634705,0.9857961945937233,896.1172161172161,758.7179487179487,794.981684981685,893.2967032967033,725.2747252747253,-0.376465,0.140808,0.901062,2.841187,-1.674805,-0.560760,1,2,1,1,2,60.000000
2023-08-31 16:48:49.933,1.401967505948654,1.000616341460434,0.5893312340634206,0.8187359795048237,1.386512129443834,0.230791435629155,0.007814867297495236,0.9333814738284723,1.273507949423856,0.4436683178137121,0.1309248929072628,1.226768406640269,0.885836777713374,0.6242702845985105,0.5463108876781797,1.311353188044223,0.6641389506500464,0.3115867377446753,0.7723011437406921,0.9857961945937233,1095.164835164835,773.2234432234433,786.5201465201466,786.5201465201466,365.4578754578754,-0.376465,0.142578,0.908020,0.986938,-1.996307,0.388794,1,4,1,1,2,60.000000
2023-08-31 16:48:50.396,,,,,,,,,,,,,,,,,,,,,,,,,,,,,,,,,,,,,,/muse/elements/blink
2023-08-31 16:48:50.939,1.401967505948654,1.000616341460434,1.166061454036297,0.8187359795048237,1.386512129443834,0.230791435629155,0.6467776887028591,0.9333814738284723,1.273507949423856,0.4436683178137121,0.6133065582576248,1.226768406640269,0.885836777713374,0.6242702845985105,0.5436397300822757,1.311353188044223,0.6641389506500464,0.3115867377446753,0.25596488991362,0.9857961945937233,698.2783882783883,813.5164835164835,815.934065934066,853.4065934065934,661.6117216117216,-0.390808,0.136047,0.894775,1.943970,-3.072968,-0.829926,1,4,1,1,2,60.000000
2023-08-31 16:48:51.933,1.401967505948654,1.000616341460434,1.022866946348839,0.8187359795048237,1.386512129443834,0.230791435629155,0.6601157769515548,0.9333814738284723,1.273507949423856,0.4436683178137121,0.7001787921983453,1.226768406640269,0.885836777713374,0.6242702845985105,0.6668354091979543,1.311353188044223,0.6641389506500464,0.3115867377446753,0.4725748451123487,0.9857961945937233,1620.989010989011,842.1245421245421,801.025641025641,843.7362637362637,1058.095238095238,-0.551331,0.124756,0.800720,-20.164948,56.427460,22.736969,1,4,1,1,2,60.000000
2023-08-31 16:48:51.940,,,,,,,,,,,,,,,,,,,,,,,,,,,,,,,,,,,,,,/muse/elements/jaw_clench
2023-08-31 16:48:52.118,,,,,,,,,,,,,,,,,,,,,,,,,,,,,,,,,,,,,,/muse/elements/blink
2023-08-31 16:48:52.118,,,,,,,,,,,,,,,,,,,,,,,,,,,,,,,,,,,,,,/muse/elements/jaw_clench
2023-08-31 16:48:52.647,,,,,,,,,,,,,,,,,,,,,,,,,,,,,,,,,,,,,,/muse/elements/blink
2023-08-31 16:48:52.933,1.401967505948654,1.000616341460434,1.020663079617769,0.8187359795048237,1.386512129443834,0.230791435629155,0.7609389826903037,0.9333814738284723,1.273507949423856,0.4436683178137121,0.5649700147042828,1.226768406640269,0.885836777713374,0.6242702845985105,0.7232547684638012,1.311353188044223,0.6641389506500464,0.3115867377446753,0.5177682799417501,0.9857961945937233,326.7765567765568,780.0732600732601,766.3736263736264,781.6849816849817,542.3443223443223,-0.730591,0.208801,0.661560,24.965057,21.092072,-47.156219,1,4,1,1,2,60.000000
2023-08-31 16:48:53.768,,,,,,,,,,,,,,,,,,,,,,,,,,,,,,,,,,,,,,/muse/elements/blink
2023-08-31 16:48:53.768,,,,,,,,,,,,,,,,,,,,,,,,,,,,,,,,,,,,,,/muse/elements/jaw_clench
2023-08-31 16:48:53.934,1.401967505948654,1.000616341460434,1.020663079617769,0.8187359795048237,1.386512129443834,0.230791435629155,0.7609389826903037,0.9333814738284723,1.273507949423856,0.4436683178137121,0.5649700147042828,1.226768406640269,0.885836777713374,0.6242702845985105,0.7232547684638012,1.311353188044223,0.6641389506500464,0.3115867377446753,0.5177682799417501,0.9857961945937233,0,707.1428571428571,792.1611721611722,831.2454212454213,817.1428571428571,-0.706726,0.024414,0.658142,20.187378,-13.398438,-14.901276,1,4,1,1,2,60.000000
2023-08-31 16:48:54.147,,,,,,,,,,,,,,,,,,,,,,,,,,,,,,,,,,,,,,/muse/elements/blink
2023-08-31 16:48:54.302,,,,,,,,,,,,,,,,,,,,,,,,,,,,,,,,,,,,,,/muse/elements/jaw_clench
2023-08-31 16:48:54.933,1.401967505948654,1.000616341460434,1.020663079617769,0.8187359795048237,1.386512129443834,0.230791435629155,0.7609389826903037,0.9333814738284723,1.273507949423856,0.4436683178137121,0.5649700147042828,1.226768406640269,0.885836777713374,0.6242702845985105,0.7232547684638012,1.311353188044223,0.6641389506500464,0.3115867377446753,0.5177682799417501,0.9857961945937233,942.0512820512821,855.4212454212454,826.007326007326,884.8351648351648,1360.695970695971,-0.669128,0.050232,0.730103,4.800110,-11.723633,-1.719666,1,4,1,1,2,60.000000
2023-08-31 16:48:55.251,,,,,,,,,,,,,,,,,,,,,,,,,,,,,,,,,,,,,,/muse/elements/blink
2023-08-31 16:48:55.672,,,,,,,,,,,,,,,,,,,,,,,,,,,,,,,,,,,,,,/muse/elements/blink
2023-08-31 16:48:55.933,1.401967505948654,1.000616341460434,0.8994526201953799,0.8187359795048237,1.386512129443834,0.230791435629155,-0.09295769645548654,0.9333814738284723,1.273507949423856,0.4436683178137121,0.3354036947689735,1.226768406640269,0.885836777713374,0.6242702845985105,0.9588245307643924,1.311353188044223,0.6641389506500464,0.3115867377446753,0.6016738802550476,0.9857961945937233,478.6813186813187,796.996336996337,795.7875457875458,805.4578754578755,855.0183150183151,-0.663940,0.056274,0.733276,1.846771,-3.648682,-0.157013,1,4,1,1,2,65.000000
2023-08-31 16:48:56.933,1.401967505948654,0.5865045696622474,0.6335252860202537,0.8187359795048237,1.386512129443834,0.08848165380391806,-0.0747480910149696,0.9333814738284723,1.273507949423856,0.2283679667631718,0.4002477374399699,1.226768406640269,0.885836777713374,0.7171980557957819,0.9251036745831047,1.311353188044223,0.6641389506500464,0.5821851789085126,0.8026528153840566,0.9857961945937233,1518.644688644689,748.6446886446887,784.1025641025641,806.2637362637363,918.2783882783883,-0.717041,0.102417,0.679688,-35.148468,6.093597,65.982819,1,4,1,1,2,65.000000
2023-08-31 16:48:57.512,,,,,,,,,,,,,,,,,,,,,,,,,,,,,,,,,,,,,,/muse/elements/blink
2023-08-31 16:48:57.933,1.401967505948654,0.4315818690430642,0.1973619315233219,0.8187359795048237,1.386512129443834,-0.02132001002629823,-0.2060526198830421,0.9333814738284723,1.273507949423856,-0.008373943075147314,0.1755538474558125,1.226768406640269,0.885836777713374,0.4676829213352497,0.8785040556688561,1.311353188044223,0.6641389506500464,0.5865375563809911,0.8409140667017393,0.9857961945937233,627.3626373626374,789.3406593406594,829.6336996336996,823.5897435897436,473.8461538461539,-0.776489,0.142029,0.612488,4.635620,11.170349,-6.377716,1,4,1,1,2,65.000000
2023-08-31 16:48:58.933,1.401967505948654,0.4315818690430642,0.5828336676797472,0.8187359795048237,1.386512129443834,-0.02132001002629823,-0.1423320741656466,0.9333814738284723,1.273507949423856,-0.008373943075147314,-0.3106593416500245,1.226768406640269,0.885836777713374,0.4676829213352497,0.9818232128513842,1.311353188044223,0.6641389506500464,0.5865375563809911,0.7809200981830768,0.9857961945937233,739.3772893772893,815.1282051282052,809.8901098901099,841.7216117216118,738.974358974359,-0.726868,0.142944,0.663269,0.426178,-10.901184,3.521576,1,4,1,1,2,65.000000
2023-08-31 16:48:59.933,1.401967505948654,0.8138941819925237,0.8082437816287559,0.8187359795048237,1.386512129443834,0.460065407685941,-0.04187318490358126,0.9333814738284723,1.273507949423856,0.3042879412337153,0.3908539170113084,1.226768406640269,0.885836777713374,0.6587288764223018,0.9834592202312173,1.311353188044223,0.6641389506500464,0.5970545061722967,0.7274017216989437,0.9857961945937233,830.8424908424909,759.92673992674,785.7142857142858,915.8608058608058,936.8131868131868,-0.462158,0.175903,0.854187,-3.125305,-9.944153,-0.755157,1,4,1,1,2,65.000000
2023-08-31 16:49:00.933,1.401967505948654,0.8052282670864318,0.8082437816287559,0.8187359795048237,1.386512129443834,0.4948101288322466,-0.04187318490358126,0.9333814738284723,1.273507949423856,0.2723857639773186,0.3908539170113084,1.226768406640269,0.885836777713374,0.581828535588726,0.9834592202312173,1.311353188044223,0.6641389506500464,0.5751556828005294,0.7274017216989437,0.9857961945937233,1624.615384615385,819.96336996337,807.8754578754579,766.3736263736264,388.021978021978,-0.197693,0.151123,0.955933,10.527344,-16.620941,-28.217468,1,4,1,1,2,65.000000
2023-08-31 16:49:01.678,,,,,,,,,,,,,,,,,,,,,,,,,,,,,,,,,,,,,,/muse/elements/blink
2023-08-31 16:49:01.933,1.401967505948654,0.8052282670864318,0.8082437816287559,0.8187359795048237,1.386512129443834,0.4948101288322466,-0.04187318490358126,0.9333814738284723,1.273507949423856,0.2723857639773186,0.3908539170113084,1.226768406640269,0.885836777713374,0.581828535588726,0.9834592202312173,1.311353188044223,0.6641389506500464,0.5751556828005294,0.7274017216989437,0.9857961945937233,1039.56043956044,788.1318681318681,760.7326007326008,813.5164835164835,718.4249084249085,-0.259216,0.135925,0.947876,3.566437,0.067291,-3.917847,1,2,1,1,2,65.000000
2023-08-31 16:49:02.933,1.401967505948654,0.8052282670864318,0.7316624299212194,0.8187359795048237,1.386512129443834,0.4948101288322466,0.5485446278931561,0.9333814738284723,1.273507949423856,0.2723857639773186,0.6150330345155223,1.226768406640269,0.885836777713374,0.581828535588726,0.5824223917818949,1.311353188044223,0.6641389506500464,0.5751556828005294,0.6312150952145411,0.9857961945937233,747.032967032967,799.4139194139194,759.92673992674,801.8315018315019,863.4798534798535,-0.322021,0.140808,0.926575,2.945862,-4.807587,-2.377625,1,2,1,1,2,65.000000
2023-08-31 16:49:03.398,,,,,,,,,,,,,,,,,,,,,,,,,,,,,,,,,,,,,,/muse/elements/blink
2023-08-31 16:49:03.685,,,,,,,,,,,,,,,,,,,,,,,,,,,,,,,,,,,,,,/muse/elements/blink
2023-08-31 16:49:03.938,1.401967505948654,0.8052282670864318,0.4879321269563281,0.8778508270965143,1.386512129443834,0.4948101288322466,0.337340533499422,0.657144686286665,1.273507949423856,0.2723857639773186,0.534631230294744,1.16873613596676,0.885836777713374,0.581828535588726,0.6477660623039277,1.002857237445122,0.6641389506500464,0.5751556828005294,0.5854953977826434,1.063872952511381,489.96336996337,754.2857142857143,831.2454212454213,747.4358974358975,215.1648351648352,-0.301147,0.143982,0.929443,2.534637,-3.117828,0.037384,1,2,1,1,1,65.000000
2023-08-31 16:49:04.932,1.401967505948654,0.8052282670864318,0.5633747601476284,0.9078456268024613,1.386512129443834,0.4948101288322466,0.4258804411497845,0.6068755236542817,1.273507949423856,0.2723857639773186,0.5334836358962529,0.8432602280307488,0.885836777713374,0.581828535588726,0.7122091053914851,0.9648122525770334,0.6641389506500464,0.5751556828005294,0.5675149318976469,0.9925408119188005,1015.787545787546,788.9377289377289,798.2051282051282,789.3406593406594,352.5641025641026,-0.298401,0.146484,0.927917,2.415009,-3.409424,-0.134583,1,2,1,1,1,65.000000
2023-08-31 16:49:05.338,,,,,,,,,,,,,,,,,,,,,,,,,,,,,,,,,,,,,,/muse/elements/blink
2023-08-31 16:49:05.605,,,,,,,,,,,,,,,,,,,,,,,,,,,,,,,,,,,,,,/muse/elements/blink
2023-08-31 16:49:05.932,1.401967505948654,0.8052282670864318,1.06956840267857,0.9078456268024613,1.386512129443834,0.4948101288322466,0.5325556456063932,0.6068755236542817,1.273507949423856,0.2723857639773186,0.6294153256277306,0.8432602280307488,0.885836777713374,0.581828535588726,0.7022709999159177,0.9648122525770334,0.6641389506500464,0.5751556828005294,0.4085374808107718,0.9925408119188005,834.0659340659341,813.1135531135532,798.6080586080586,792.967032967033,514.1391941391942,-0.304993,0.146179,0.929688,2.676697,-3.072968,-0.702820,1,4,1,1,1,65.000000
2023-08-31 16:49:06.463,,,,,,,,,,,,,,,,,,,,,,,,,,,,,,,,,,,,,,/muse/elements/blink
2023-08-31 16:49:06.751,,,,,,,,,,,,,,,,,,,,,,,,,,,,,,,,,,,,,,/muse/elements/jaw_clench
2023-08-31 16:49:06.940,1.401967505948654,0.8052282670864318,1.068579621371742,0.9078456268024613,1.386512129443834,0.4948101288322466,0.6018835108502338,0.6068755236542817,1.273507949423856,0.2723857639773186,0.7809376894665463,0.8432602280307488,0.885836777713374,0.581828535588726,0.6857111002526588,0.9648122525770334,0.6641389506500464,0.5751556828005294,0.4706496980970538,0.9925408119188005,315.0915750915751,778.0586080586081,822.7838827838829,937.2161172161173,1585.934065934066,-0.618774,0.124207,0.770813,0.157013,-3.289795,10.789032,1,4,1,1,2,65.000000
2023-08-31 16:49:07.932,1.401967505948654,0.8052282670864318,1.067588583715886,0.9078456268024613,1.386512129443834,0.4948101288322466,0.6616527364384728,0.6068755236542817,1.273507949423856,0.2723857639773186,0.7209716258405682,0.8432602280307488,0.885836777713374,0.581828535588726,0.6684946444807189,0.9648122525770334,0.6641389506500464,0.5751556828005294,0.5249800664986104,0.9925408119188005,1566.996336996337,830.0366300366301,798.2051282051282,859.047619047619,1539.194139194139,-0.681458,0.261658,0.682678,21.166840,3.947754,24.897766,1,4,1,1,2,65.000000
2023-08-31 16:49:08.669,,,,,,,,,,,,,,,,,,,,,,,,,,,,,,,,,,,,,,/muse/elements/blink
2023-08-31 16:49:08.942,1.401967505948654,0.2816989136203538,0.373091211896571,0.5489045112565296,1.386512129443834,0.1114824967985889,0.2748416248291407,0.6081594445544184,1.273507949423856,0.6026916570319711,0.5058962118887639,1.005293828983849,0.885836777713374,1.033876471091503,1.139575509217409,1.455883872071881,0.6641389506500464,0.6741750899677383,0.8610346542826053,1.113656545346928,1067.765567765568,823.1868131868132,792.967032967033,890.8791208791209,1459.010989010989,-0.611511,0.449524,0.656250,5.914154,0.889740,-16.112518,1,4,1,1,1,65.000000
2023-08-31 16:49:09.932,1.401967505948654,0.8477902347571318,0.3636103596443199,0.8037837763758514,1.386512129443834,0.1002532589092042,-0.012483768424992,0.7081771740417482,1.273507949423856,0.2957489769519954,0.2478534004885301,0.9598123403991214,0.885836777713374,0.9806825248377451,1.056851603586707,1.26058339862904,0.6641389506500464,0.6679162538118306,0.8052284390080753,1.089577927089513,1491.648351648352,809.4871794871796,778.4615384615385,803.8461538461539,1521.062271062271,-0.671021,-0.071533,0.731628,2.011261,-6.108551,-8.448792,1,4,1,1,1,65.000000
2023-08-31 16:49:10.914,,,,,,,,,,,,,,,,,,,,,,,,,,,,,,,,,,,,,,/muse/elements/blink
2023-08-31 16:49:10.932,1.401967505948654,0.711262639889789,0.3636103596443199,0.8637284779561833,1.386512129443834,0.1278145527055557,-0.012483768424992,0.7858611647749973,1.273507949423856,0.4146435303106896,0.2478534004885301,0.9093155631038919,0.885836777713374,0.958295154565298,1.056851603586707,1.155122414657619,0.6641389506500464,0.6764334293071146,0.8052284390080753,1.037133978154346,339.6703296703297,799.0109890109891,807.0695970695971,880.8058608058608,1550.07326007326,-0.641235,-0.069275,0.732910,7.304840,17.443390,-0.059814,1,4,1,1,1,65.000000
2023-08-31 16:49:11.351,,,,,,,,,,,,,,,,,,,,,,,,,,,,,,,,,,,,,,/muse/elements/blink
2023-08-31 16:49:11.932,1.401967505948654,0.7715519184262346,0.7666982439977107,0.8637284779561833,1.386512129443834,0.1748310550818133,-0.03447105601776485,0.7858611647749973,1.273507949423856,0.4138603808153141,0.379901551177611,0.9093155631038919,0.885836777713374,0.8342194617164824,0.7951071306497425,1.155122414657619,0.6641389506500464,0.7398919345013901,0.6955209328001596,1.037133978154346,804.2490842490843,767.985347985348,778.8644688644689,857.4358974358975,1454.981684981685,-0.731201,0.238770,0.626587,3.237457,-6.108551,-4.179535,1,4,1,1,2,65.000000
2023-08-31 16:49:12.932,1.401967505948654,0.993014707831302,0.6711372047487447,0.8637284779561833,1.386512129443834,0.1356544785728341,-0.006213780675717567,0.7858611647749973,1.273507949423856,0.2388504894741307,0.4055960011245786,0.9093155631038919,0.885836777713374,0.7763002009056009,0.7821679294733891,1.155122414657619,0.6641389506500464,0.7932382960631875,0.668865598854408,1.037133978154346,1318.388278388278,813.1135531135532,790.952380952381,894.908424908425,1545.641025641026,-0.725769,0.098450,0.672974,-5.884247,-17.899475,-18.774261,1,4,1,1,2,65.000000
2023-08-31 16:49:13.932,1.401967505948654,0.993014707831302,0.5883194313657975,0.8637284779561833,1.386512129443834,0.1356544785728341,0.4084171615649992,0.7858611647749973,1.273507949423856,0.2388504894741307,0.4429466937762221,0.9093155631038919,0.885836777713374,0.7763002009056009,0.9485597713724276,1.155122414657619,0.6641389506500464,0.7932382960631875,0.3921731757538079,1.037133978154346,19.74358974358974,825.2014652014652,789.3406593406594,853.4065934065934,1641.941391941392,-0.611450,0.081665,0.789062,0.224304,-3.229980,-1.667328,1,4,1,1,2,65.000000
2023-08-31 16:49:14.932,1.401967505948654,0.993014707831302,0.684643948361462,0.8637284779561833,1.386512129443834,0.1356544785728341,0.3813339689878755,0.7858611647749973,1.273507949423856,0.2388504894741307,0.5092384205868333,0.9093155631038919,0.885836777713374,0.7763002009056009,0.9382323576909566,1.155122414657619,0.6641389506500464,0.7932382960631875,0.4693859562386761,1.037133978154346,1625.018315018315,802.2344322344322,821.978021978022,855.4212454212454,1510.989010989011,-0.529602,0.068848,0.826355,2.990723,-12.620850,-4.650574,1,4,1,1,2,65.000000
2023-08-31 16:49:15.932,1.401967505948654,0.406434382844538,0.6151369068710073,0.8637284779561833,1.386512129443834,0.1410664457078993,0.3537303601827527,0.7858611647749973,1.273507949423856,0.142111716087228,0.4344153936450965,0.9093155631038919,0.885836777713374,0.584055538025291,0.6966705511839588,1.155122414657619,0.6641389506500464,0.5591111982049901,0.8865422774452103,1.037133978154346,431.1355311355312,805.0549450549451,765.1648351648352,888.4615384615385,1602.051282051282,-0.517212,0.123718,0.836426,3.065491,-6.273041,-1.816864,1,4,1,1,2,65.000000
2023-08-31 16:49:16.932,1.401967505948654,0.6597657096219881,0.7461121370887631,0.8637284779561833,1.386512129443834,0.2874855223690955,0.4523993530568635,0.7858611647749973,1.273507949423856,0.3441242719839467,0.56637195736047,0.9093155631038919,0.885836777713374,0.7226538198162908,0.9214860658762177,1.155122414657619,0.6641389506500464,0.5444666269433716,0.8766884823230791,1.037133978154346,1224.908424908425,805.8608058608058,789.7435897435897,869.92673992674,1616.153846153846,-0.489380,0.089844,0.851807,0.403748,-6.347809,2.848663,1,4,1,1,2,65.000000
2023-08-31 16:49:17.932,1.401967505948654,0.803085483753335,0.4646259181435672,1.30586501716401,1.386512129443834,0.4047041299965099,0.2650137605729264,1.256481210449298,1.273507949423856,0.4740332534970359,0.614182085026544,1.136511838047035,0.885836777713374,0.7609151600088567,0.8093182128178269,1.068603834979466,0.6641389506500464,0.3529650902235975,0.6173494641389369,0.7598357245434698,1329.267399267399,811.9047619047619,788.9377289377289,817.5457875457876,1451.355311355311,-0.585449,0.102478,0.787170,-4.501038,11.417084,13.061981,1,4,1,1,1,65.000000
2023-08-31 16:49:18.932,1.401967505948654,0.81698458220397,0.7470661319054513,1.129968415151308,1.386512129443834,0.3634251697695371,0.3522368595909386,0.9852255945458407,1.273507949423856,0.4181303693283322,0.5782161542733215,1.208401413318018,0.885836777713374,0.3561662418307906,0.4662857713548554,1.245224278434196,0.6641389506500464,0.2618968552780609,0.4500318345035673,1.060282562121691,206.7032967032967,798.6080586080586,816.7399267399268,817.1428571428571,1064.139194139194,-0.763550,0.046997,0.650452,-0.448608,16.665802,-0.351410,1,4,1,1,1,65.000000
2023-08-31 16:49:19.120,,,,,,,,,,,,,,,,,,,,,,,,,,,,,,,,,,,,,,/muse/elements/jaw_clench
2023-08-31 16:49:19.932,1.401967505948654,1.053202367435177,1.118987533484569,0.8378724375124076,1.386512129443834,0.4852675787337074,0.5657978013893428,0.6073242145365557,1.273507949423856,0.3941034941004506,0.6002103067966365,0.9368904997893314,0.885836777713374,0.4933398202629112,0.6243522103092163,1.3247790917608,0.6641389506500464,0.4407803427169363,0.5050872898398752,1.001131600398547,1230.952380952381,796.5934065934066,790.1465201465202,881.6117216117217,1500.512820512821,-0.681030,0.075317,0.715942,2.332764,-9.779663,1.106567,1,4,1,1,1,65.000000
2023-08-31 16:49:19.957,,,,,,,,,,,,,,,,,,,,,,,,,,,,,,,,,,,,,,/muse/elements/blink
2023-08-31 16:49:20.860,,,,,,,,,,,,,,,,,,,,,,,,,,,,,,,,,,,,,,/muse/elements/blink
2023-08-31 16:49:20.932,1.401967505948654,0.002290171571886923,0.1627487653279075,0.6714588243596559,1.386512129443834,-0.1422818264894067,-0.02827261740767272,0.7211612709437725,1.273507949423856,0.1702368126072583,0.5171101668064247,0.8768408609783949,0.885836777713374,0.8586685224017555,0.7486172681124934,1.209429714104267,0.6641389506500464,0.5896115773030307,0.606154500953858,0.8769424172154549,342.8937728937729,788.5347985347986,806.2637362637363,848.974358974359,1290.18315018315,-0.639465,0.079468,0.750732,6.856232,-5.704803,-4.426270,1,4,1,1,1,65.000000
2023-08-31 16:49:21.932,1.401967505948654,-0.12945503897536,0.8060527109543724,0.9801815813037309,1.386512129443834,-0.1269516938655072,0.5891308614998506,1.04616528445659,1.273507949423856,0.07908800451274176,0.7514190830653376,1.031437473715041,0.885836777713374,0.7816209740552209,0.7866705672989612,1.075548303854036,0.6641389506500464,0.5444451315750398,0.6387106989196878,0.9656034298996755,1157.216117216117,742.6007326007326,800.6227106227107,908.2051282051282,855.0183150183151,-0.638367,0.102417,0.750488,4.620667,-2.459869,2.878571,1,4,1,1,1,65.000000
2023-08-31 16:49:22.395,,,,,,,,,,,,,,,,,,,,,,,,,,,,,,,,,,,,,,/muse/elements/blink
2023-08-31 16:49:22.919,,,,,,,,,,,,,,,,,,,,,,,,,,,,,,,,,,,,,,/muse/elements/blink
2023-08-31 16:49:22.932,1.401967505948654,-0.12945503897536,0.8958971621919949,1.029817347831992,1.386512129443834,-0.1269516938655072,0.5547367749748263,1.175188798210694,1.273507949423856,0.07908800451274176,0.5661926427624515,1.031437473715041,0.885836777713374,0.7816209740552209,0.8496431361216054,1.033297858625629,0.6641389506500464,0.5444451315750398,0.6463719557381074,0.9743166836367877,928.7545787545788,831.2454212454213,819.1575091575091,867.5091575091575,1357.472527472527,-0.579102,0.123901,0.806702,5.532837,0.800018,-1.570129,1,4,1,1,1,65.000000
2023-08-31 16:49:23.935,1.401967505948654,-0.12945503897536,0.8958971621919949,1.029817347831992,1.386512129443834,-0.1269516938655072,0.5547367749748263,1.175188798210694,1.273507949423856,0.07908800451274176,0.5661926427624515,1.031437473715041,0.885836777713374,0.7816209740552209,0.8496431361216054,1.033297858625629,0.6641389506500464,0.5444451315750398,0.6463719557381074,0.9743166836367877,701.0989010989011,811.0989010989011,800.2197802197802,796.5934065934066,1033.516483516484,-0.563599,0.112427,0.806824,1.383209,-3.095398,-0.957031,1,4,1,1,1,65.000000
2023-08-31 16:49:24.932,1.401967505948654,1.01034861086034,1.059717261363433,1.029817347831992,1.386512129443834,0.2487688388483882,0.6648639124919252,1.175188798210694,1.273507949423856,0.3683298017810306,0.5706013925645869,1.031437473715041,0.885836777713374,0.7431874438186006,0.8813552562504258,1.033297858625629,0.6641389506500464,0.4292050755356777,0.5455792300691705,0.9743166836367877,1195.091575091575,789.3406593406594,776.4468864468864,742.1978021978023,665.2380952380953,-0.548279,0.130371,0.814026,-2.601929,-7.155304,6.564636,1,4,1,1,2,65.000000
2023-08-31 16:49:25.937,1.401967505948654,0.9081648799760977,0.7446230558799882,1.029817347831992,1.386512129443834,0.2819282242162042,0.3707923335473391,1.175188798210694,1.273507949423856,0.4406560005631032,0.5727299361804065,1.031437473715041,0.885836777713374,0.7820723999430127,0.8109144639689565,1.033297858625629,0.6641389506500464,0.6170651197456517,0.4746611735554674,0.9743166836367877,1624.212454212454,734.9450549450549,810.2930402930403,923.919413919414,1166.886446886447,-0.491333,0.166199,0.842224,7.656250,-5.659943,-5.151520,1,4,1,1,2,65.000000
2023-08-31 16:49:26.932,1.401967505948654,0.5310131585670709,0.7798493100263523,1.029817347831992,1.386512129443834,0.4142993566311923,0.4172146457169005,1.175188798210694,1.273507949423856,0.4291814322251384,0.5661035908002766,1.031437473715041,0.885836777713374,0.8005047562006163,0.8218486364476895,1.033297858625629,0.6641389506500464,0.7378712066533675,0.4994261177632228,0.9743166836367877,296.1538461538462,769.5970695970697,742.1978021978023,757.5091575091575,724.8717948717949,-0.463623,0.146545,0.876709,5.031891,-2.781372,-0.508423,1,4,1,1,2,60.000000
2023-08-31 16:49:26.951,,,,,,,,,,,,,,,,,,,,,,,,,,,,,,,,,,,,,,/muse/elements/blink
2023-08-31 16:49:27.561,,,,,,,,,,,,,,,,,,,,,,,,,,,,,,,,,,,,,,/muse/elements/blink
2023-08-31 16:49:27.932,1.401967505948654,0.5310131585670709,0.7798493100263523,1.029817347831992,1.386512129443834,0.4142993566311923,0.4172146457169005,1.175188798210694,1.273507949423856,0.4291814322251384,0.5661035908002766,1.031437473715041,0.885836777713374,0.8005047562006163,0.8218486364476895,1.033297858625629,0.6641389506500464,0.7378712066533675,0.4994261177632228,0.9743166836367877,682.5641025641025,817.1428571428571,744.6153846153846,661.6117216117216,425.8974358974359,-0.472778,0.133850,0.865845,1.846771,-5.742188,1.256104,1,4,1,1,2,60.000000
2023-08-31 16:49:28.932,1.401967505948654,0.5310131585670709,0.9417007575152281,1.029817347831992,1.386512129443834,0.4142993566311923,0.2804388715743245,1.175188798210694,1.273507949423856,0.4291814322251384,0.5247095380396044,1.031437473715041,0.885836777713374,0.8005047562006163,0.4729108387750602,1.033297858625629,0.6641389506500464,0.7378712066533675,0.4732637498453868,0.9743166836367877,0,826.007326007326,811.5018315018315,722.8571428571429,793.7728937728938,-0.708740,0.062744,0.701843,-9.921722,18.348083,7.297363,1,4,1,1,2,60.000000
2023-08-31 16:49:29.931,1.401967505948654,0.5310131585670709,0.9614969364474403,1.029817347831992,1.386512129443834,0.4142993566311923,0.315979505003255,1.175188798210694,1.273507949423856,0.4291814322251384,0.44548608149453,1.031437473715041,0.885836777713374,0.8005047562006163,0.4790043593229483,1.033297858625629,0.6641389506500464,0.7378712066533675,0.4469883981193228,0.9743166836367877,6.446886446886447,787.3260073260074,821.978021978022,711.978021978022,615.2747252747253,-0.758362,0.078796,0.636597,1.966400,-3.469238,-1.054230,1,4,1,1,2,60.000000
2023-08-31 16:49:30.936,1.401967505948654,0.5310131585670709,0.6298934546099334,1.029817347831992,1.386512129443834,0.4142993566311923,0.1615150387434743,1.175188798210694,1.273507949423856,0.4291814322251384,0.4489723071637142,1.031437473715041,0.885836777713374,0.8005047562006163,0.726314058068942,1.033297858625629,0.6641389506500464,0.7378712066533675,0.6871215684761173,0.9743166836367877,611.2454212454213,813.5164835164835,788.9377289377289,769.5970695970697,1008.131868131868,-0.694763,0.131409,0.683960,11.873169,-7.185211,-0.986938,1,4,1,1,2,60.000000
2023-08-31 16:49:31.932,1.401967505948654,0.692864703486144,0.7553356288487104,0.7618853538540907,1.386512129443834,0.2412820875213846,0.2238820890534333,0.8788580568528471,1.273507949423856,0.1099153054615815,0.5572095160174581,1.098084990221387,0.885836777713374,0.6239967931655962,0.7250715227097823,1.255491992359386,0.6641389506500464,0.5908679547121559,0.4801251927931489,1.215547145625116,1522.271062271062,796.996336996337,784.9084249084249,796.5934065934066,713.5897435897436,-0.702087,0.096436,0.699158,2.534637,-3.768311,1.996307,1,4,1,1,1,60.000000
2023-08-31 16:49:32.932,1.401967505948654,0.7496827486857832,0.683275707180982,0.58520346830398,1.386512129443834,0.2548315408905636,-0.0002687502532768473,0.7794367556053077,1.273507949423856,0.1172648804753759,0.2270564215384095,1.049441038173273,0.885836777713374,0.5509435091125816,0.6560486013320589,1.276543035456168,0.6641389506500464,0.4333297568122459,0.4816855764882549,1.031170128078769,1075.421245421245,806.6666666666667,825.2014652014652,778.8644688644689,379.1575091575092,-0.707520,0.107605,0.690247,2.011261,-3.536530,-0.366364,1,4,1,1,1,60.000000
2023-08-31 16:49:33.932,1.401967505948654,0.5791827962922564,0.5040507391150418,0.5901761065120583,1.386512129443834,0.101994563501646,0.09573883177007833,0.7316390754309406,1.273507949423856,-0.00559374836500494,0.3545854774779747,1.028262212958522,0.885836777713374,0.6369261804111929,0.6858623140862389,1.309307375324,0.6641389506500464,0.3716367756335422,0.3657446903253092,0.9684604554372671,860.2564102564103,734.5421245421246,790.1465201465202,750.6593406593407,0,-0.664429,0.093750,0.734741,3.656158,-1.555176,-2.400055,1,4,1,1,1,60.000000
2023-08-31 16:49:34.933,1.401967505948654,0.5791827962922564,0.7604311169969339,0.5901761065120583,1.386512129443834,0.101994563501646,0.07020149016034,0.7316390754309406,1.273507949423856,-0.00559374836500494,0.6451567583305983,1.028262212958522,0.885836777713374,0.6369261804111929,0.8002327179522839,1.309307375324,0.6641389506500464,0.3716367756335422,0.4438857271695993,0.9684604554372671,322.7472527472527,818.3516483516484,825.2014652014652,709.5604395604396,509.3040293040293,-0.611694,0.085388,0.786865,-3.678589,-9.465637,5.637512,1,4,1,1,2,60.000000
2023-08-31 16:49:35.562,,,,,,,,,,,,,,,,,,,,,,,,,,,,,,,,,,,,,,/muse/elements/blink
2023-08-31 16:49:35.803,,,,,,,,,,,,,,,,,,,,,,,,,,,,,,,,,,,,,,/muse/elements/jaw_clench
2023-08-31 16:49:35.932,1.401967505948654,0.5791827962922564,0.9702249602639241,0.5901761065120583,1.386512129443834,0.101994563501646,0.178387289884661,0.7316390754309406,1.273507949423856,-0.00559374836500494,0.471196045869702,1.028262212958522,0.885836777713374,0.6369261804111929,0.9528351271024513,1.309307375324,0.6641389506500464,0.3716367756335422,0.5246269081790739,0.9684604554372671,825.6043956043957,782.4908424908425,794.1758241758242,626.5567765567765,106.7765567765568,-0.849976,0.214783,0.453064,4.538422,1.540222,4.239349,1,4,1,1,2,60.000000
2023-08-31 16:49:36.087,,,,,,,,,,,,,,,,,,,,,,,,,,,,,,,,,,,,,,/muse/elements/jaw_clench
2023-08-31 16:49:36.932,1.401967505948654,0.5791827962922564,0.9702249602639241,0.5901761065120583,1.386512129443834,0.101994563501646,0.178387289884661,0.7316390754309406,1.273507949423856,-0.00559374836500494,0.471196045869702,1.028262212958522,0.885836777713374,0.6369261804111929,0.9528351271024513,1.309307375324,0.6641389506500464,0.3716367756335422,0.5246269081790739,0.9684604554372671,587.8754578754579,810.6959706959707,789.3406593406594,672.893772893773,0,-0.793579,0.322083,0.520874,-1.644897,-10.848846,-2.908478,1,4,1,1,2,60.000000
2023-08-31 16:49:37.408,,,,,,,,,,,,,,,,,,,,,,,,,,,,,,,,,,,,,,/muse/elements/blink
2023-08-31 16:49:37.629,,,,,,,,,,,,,,,,,,,,,,,,,,,,,,,,,,,,,,/muse/elements/blink
2023-08-31 16:49:37.915,,,,,,,,,,,,,,,,,,,,,,,,,,,,,,,,,,,,,,/muse/elements/jaw_clench
2023-08-31 16:49:37.932,1.401967505948654,0.9332001695778337,0.9702249602639241,0.5901761065120583,1.386512129443834,0.4288167822885002,0.178387289884661,0.7316390754309406,1.273507949423856,0.7694561521524197,0.471196045869702,1.028262212958522,0.885836777713374,1.035015097754616,0.9528351271024513,1.309307375324,0.6641389506500464,0.8913127529078605,0.5246269081790739,0.9684604554372671,563.2967032967033,779.2673992673992,787.7289377289378,696.6666666666667,145.8608058608059,-0.563477,0.251343,0.759827,5.742188,-17.869568,-24.882812,1,4,1,1,2,60.000000
2023-08-31 16:49:38.353,,,,,,,,,,,,,,,,,,,,,,,,,,,,,,,,,,,,,,/muse/elements/blink
2023-08-31 16:49:38.530,,,,,,,,,,,,,,,,,,,,,,,,,,,,,,,,,,,,,,/muse/elements/jaw_clench
2023-08-31 16:49:38.937,1.401967505948654,0.8804922499337982,0.9702249602639241,0.5901761065120583,1.386512129443834,0.4453430414262404,0.178387289884661,0.7316390754309406,1.273507949423856,0.766670162192028,0.471196045869702,1.028262212958522,0.885836777713374,0.9987846873540759,0.9528351271024513,1.309307375324,0.6641389506500464,0.8607335734868296,0.5246269081790739,0.9684604554372671,243.7728937728938,789.7435897435897,795.3846153846154,673.6996336996338,0,-0.539795,0.154236,0.821777,-1.106567,-9.959106,-3.140259,1,4,1,1,2,60.000000
2023-08-31 16:49:39.935,1.401967505948654,0.7447703318787563,0.8622075629736249,0.9721722597509764,1.386512129443834,0.457195950400559,0.4482642311622209,0.8531998812274559,1.273507949423856,0.3191945849190377,0.4679142522494741,0.7160691819160782,0.885836777713374,0.8374631066410756,0.6760213333560529,1.178089130630931,0.6641389506500464,0.6328330831385137,0.5869178262323332,1.023663551908153,93.07692307692308,804.2490842490843,794.981684981685,700.6959706959707,243.7728937728938,-0.531128,0.161499,0.821533,2.048645,-3.207550,0.119629,1,4,1,1,1,60.000000
2023-08-31 16:49:40.345,,,,,,,,,,,,,,,,,,,,,,,,,,,,,,,,,,,,,,/muse/elements/blink
2023-08-31 16:49:40.932,1.401967505948654,0.6655446262092803,0.5735760189380812,1.051480478119142,1.386512129443834,0.1663504108738173,0.1456463448637484,0.9373277721107209,1.273507949423856,0.4432234610330735,0.6973895583280333,0.8054757712367403,0.885836777713374,0.7740807669757159,0.802208240635391,1.104713861624282,0.6641389506500464,0.5015064118673093,0.4766511596000844,1.039703239988927,15.31135531135531,782.893772893773,797.8021978021978,678.1318681318681,0,-0.745361,0.100220,0.657227,-8.426361,1.248627,2.228088,1,4,1,1,1,60.000000
2023-08-31 16:49:41.933,1.401967505948654,0.747934488441507,0.6100616164350567,1.098581603210621,1.386512129443834,0.06409108210125029,-0.01833037444531184,0.7449807624508752,1.273507949423856,0.5083384442262237,0.6610413300237388,0.77352127236188,0.885836777713374,0.7072026513480784,0.9818820174414301,1.070429380374498,0.6641389506500464,0.5071288228031554,0.5677141924587018,1.094189005390061,218.3882783882784,749.4505494505495,797.8021978021978,770.8058608058608,0,-0.800293,0.028503,0.598938,12.890015,-0.897217,-17.084503,1,4,1,1,1,60.000000
2023-08-31 16:49:42.699,,,,,,,,,,,,,,,,,,,,,,,,,,,,,,,,,,,,,,/muse/elements/blink
2023-08-31 16:49:42.932,1.401967505948654,0.8310329242872834,0.6761101898014171,1.098581603210621,1.386512129443834,-0.1533431879479,0.1762031147004001,0.7449807624508752,1.273507949423856,0.4203821090847882,0.5111749277792266,0.77352127236188,0.885836777713374,0.722053790972445,1.002058702136763,1.070429380374498,0.6641389506500464,0.409622127832619,0.6278156427481086,1.094189005390061,1143.516483516484,821.978021978022,821.1721611721612,797.8021978021978,134.981684981685,-0.841675,0.024353,0.569214,-4.815063,-13.660126,10.632019,1,4,1,1,2,60.000000
2023-08-31 16:49:43.225,,,,,,,,,,,,,,,,,,,,,,,,,,,,,,,,,,,,,,/muse/elements/blink
2023-08-31 16:49:43.846,,,,,,,,,,,,,,,,,,,,,,,,,,,,,,,,,,,,,,/muse/elements/blink
2023-08-31 16:49:43.932,1.401967505948654,0.8310329242872834,0.6485877412740371,1.098581603210621,1.386512129443834,-0.1533431879479,0.2471536386183477,0.7449807624508752,1.273507949423856,0.4203821090847882,0.3779815844183288,0.77352127236188,0.885836777713374,0.722053790972445,1.099570217015681,1.070429380374498,0.6641389506500464,0.409622127832619,0.6418001141389579,1.094189005390061,437.985347985348,754.6886446886447,749.047619047619,862.2710622710623,0,-0.675049,0.080139,0.713196,-3.013153,-12.389069,10.026398,1,4,1,1,2,60.000000
2023-08-31 16:49:44.932,1.401967505948654,0.8310329242872834,0.6485877412740371,1.098581603210621,1.386512129443834,-0.1533431879479,0.2471536386183477,0.7449807624508752,1.273507949423856,0.4203821090847882,0.3779815844183288,0.77352127236188,0.885836777713374,0.722053790972445,1.099570217015681,1.070429380374498,0.6641389506500464,0.409622127832619,0.6418001141389579,1.094189005390061,866.3003663003664,823.5897435897436,853.0036630036631,722.4542124542124,0,-0.658142,0.030090,0.740051,5.652466,-17.443390,-10.691833,1,4,1,1,2,60.000000
2023-08-31 16:49:45.235,,,,,,,,,,,,,,,,,,,,,,,,,,,,,,,,,,,,,,/muse/elements/blink
2023-08-31 16:49:45.932,1.401967505948654,0.8310329242872834,0.6485877412740371,1.098581603210621,1.386512129443834,-0.1533431879479,0.2471536386183477,0.7449807624508752,1.273507949423856,0.4203821090847882,0.3779815844183288,0.77352127236188,0.885836777713374,0.722053790972445,1.099570217015681,1.070429380374498,0.6641389506500464,0.409622127832619,0.6418001141389579,1.094189005390061,1143.919413919414,826.8131868131868,767.5824175824176,738.5714285714286,299.7802197802198,-0.209473,0.055176,0.952576,2.654266,-0.456085,0.971985,1,2,1,1,2,60.000000
2023-08-31 16:49:46.272,,,,,,,,,,,,,,,,,,,,,,,,,,,,,,,,,,,,,,/muse/elements/blink
2023-08-31 16:49:46.932,1.401967505948654,0.8310329242872834,0.6485877412740371,1.098581603210621,1.386512129443834,-0.1533431879479,0.2471536386183477,0.7449807624508752,1.273507949423856,0.4203821090847882,0.3779815844183288,0.77352127236188,0.885836777713374,0.722053790972445,1.099570217015681,1.070429380374498,0.6641389506500464,0.409622127832619,0.6418001141389579,1.094189005390061,15.31135531135531,813.1135531135532,775.6410256410256,668.8644688644689,141.025641025641,-0.574951,0.100769,0.811035,0.904694,-28.867950,-0.448608,1,4,1,1,2,60.000000
2023-08-31 16:49:47.892,,,,,,,,,,,,,,,,,,,,,,,,,,,,,,,,,,,,,,/muse/elements/blink
2023-08-31 16:49:47.931,1.401967505948654,0.8310329242872834,0.6485877412740371,1.098581603210621,1.386512129443834,-0.1533431879479,0.2471536386183477,0.7449807624508752,1.273507949423856,0.4203821090847882,0.3779815844183288,0.77352127236188,0.885836777713374,0.722053790972445,1.099570217015681,1.070429380374498,0.6641389506500464,0.409622127832619,0.6418001141389579,1.094189005390061,115.6410256410256,803.040293040293,828.021978021978,775.2380952380953,161.5750915750916,-0.688904,0.097900,0.726501,-5.039368,16.329346,13.383484,1,2,1,1,2,60.000000
2023-08-31 16:49:48.090,,,,,,,,,,,,,,,,,,,,,,,,,,,,,,,,,,,,,,/muse/elements/jaw_clench
2023-08-31 16:49:48.291,,,,,,,,,,,,,,,,,,,,,,,,,,,,,,,,,,,,,,/muse/elements/jaw_clench
2023-08-31 16:49:48.932,1.401967505948654,0.8310329242872834,0.6485877412740371,1.098581603210621,1.386512129443834,-0.1533431879479,0.2471536386183477,0.7449807624508752,1.273507949423856,0.4203821090847882,0.3779815844183288,0.77352127236188,0.885836777713374,0.722053790972445,1.099570217015681,1.070429380374498,0.6641389506500464,0.409622127832619,0.6418001141389579,1.094189005390061,901.3553113553114,803.8461538461539,817.948717948718,860.2564102564103,477.8754578754579,-0.467407,0.114990,0.827393,7.431946,-69.160461,-15.895691,1,4,1,1,2,60.000000
2023-08-31 16:49:49.813,,,,,,,,,,,,,,,,,,,,,,,,,,,,,,,,,,,,,,/muse/elements/blink
2023-08-31 16:49:49.932,1.401967505948654,0.5206027795638314,0.8293128725874888,1.098581603210621,1.386512129443834,0.3053324657091387,0.3001608090126677,0.7449807624508752,1.273507949423856,0.5065145318186861,0.4937969063670404,0.77352127236188,0.885836777713374,0.8683370318462162,0.7127874934165255,1.070429380374498,0.6641389506500464,0.6466331670022194,0.8814930234548398,1.094189005390061,952.9304029304029,827.6190476190476,869.5238095238095,795.3846153846154,120.0732600732601,-0.320801,0.159485,0.920410,-4.239349,14.572296,7.768402,1,2,1,1,2,60.000000
2023-08-31 16:49:50.932,1.401967505948654,0.5206027795638314,0.8293128725874888,1.098581603210621,1.386512129443834,0.3053324657091387,0.3001608090126677,0.7449807624508752,1.273507949423856,0.5065145318186861,0.4937969063670404,0.77352127236188,0.885836777713374,0.8683370318462162,0.7127874934165255,1.070429380374498,0.6641389506500464,0.6466331670022194,0.8814930234548398,1.094189005390061,847.3626373626374,725.6776556776557,817.1428571428571,785.7142857142858,416.6300366300367,-0.404602,0.158142,0.885437,3.319702,-10.542297,-11.798401,1,4,1,1,2,60.000000
2023-08-31 16:49:51.938,1.401967505948654,0.5206027795638314,0.8293128725874888,1.098581603210621,1.386512129443834,0.3053324657091387,0.3001608090126677,0.7449807624508752,1.273507949423856,0.5065145318186861,0.4937969063670404,0.77352127236188,0.885836777713374,0.8683370318462162,0.7127874934165255,1.070429380374498,0.6641389506500464,0.6466331670022194,0.8814930234548398,1.094189005390061,492.7838827838828,832.0512820512821,755.4945054945055,689.0109890109891,0,-0.431641,0.611877,0.642029,7.566528,-7.716064,9.517975,1,4,1,1,2,60.000000
2023-08-31 16:49:52.554,,,,,,,,,,,,,,,,,,,,,,,,,,,,,,,,,,,,,,/muse/elements/blink
2023-08-31 16:49:52.778,,,,,,,,,,,,,,,,,,,,,,,,,,,,,,,,,,,,,,/muse/elements/blink
2023-08-31 16:49:52.931,1.401967505948654,0.5206027795638314,0.8293128725874888,1.098581603210621,1.386512129443834,0.3053324657091387,0.3001608090126677,0.7449807624508752,1.273507949423856,0.5065145318186861,0.4937969063670404,0.77352127236188,0.885836777713374,0.8683370318462162,0.7127874934165255,1.070429380374498,0.6641389506500464,0.6466331670022194,0.8814930234548398,1.094189005390061,697.8754578754579,732.9304029304029,729.3040293040293,749.047619047619,221.6117216117216,-0.258789,0.725891,0.593811,-2.938385,0.112152,-0.904694,1,4,1,1,2,60.000000
2023-08-31 16:49:53.932,1.401967505948654,0.5206027795638314,0.8293128725874888,1.098581603210621,1.386512129443834,0.3053324657091387,0.3001608090126677,0.7449807624508752,1.273507949423856,0.5065145318186861,0.4937969063670404,0.77352127236188,0.885836777713374,0.8683370318462162,0.7127874934165255,1.070429380374498,0.6641389506500464,0.6466331670022194,0.8814930234548398,1.094189005390061,600.3663003663004,828.4249084249085,749.047619047619,670.4761904761905,431.5384615384615,-0.375671,0.655823,0.664551,-15.604095,9.697418,-24.060364,1,4,1,1,2,60.000000
2023-08-31 16:49:54.092,,,,,,,,,,,,,,,,,,,,,,,,,,,,,,,,,,,,,,/muse/elements/blink
2023-08-31 16:49:54.722,,,,,,,,,,,,,,,,,,,,,,,,,,,,,,,,,,,,,,/muse/elements/jaw_clench
2023-08-31 16:49:54.792,,,,,,,,,,,,,,,,,,,,,,,,,,,,,,,,,,,,,,/muse/elements/blink
2023-08-31 16:49:54.931,1.401967505948654,0.5206027795638314,0.8293128725874888,1.098581603210621,1.386512129443834,0.3053324657091387,0.3001608090126677,0.7449807624508752,1.273507949423856,0.5065145318186861,0.4937969063670404,0.77352127236188,0.885836777713374,0.8683370318462162,0.7127874934165255,1.070429380374498,0.6641389506500464,0.6466331670022194,0.8814930234548398,1.094189005390061,1627.435897435897,686.996336996337,775.2380952380953,939.2307692307693,881.2087912087912,-0.748291,0.144714,0.623718,35.836334,9.061890,-56.920929,1,4,1,1,2,60.000000
2023-08-31 16:49:55.932,1.401967505948654,0.5206027795638314,0.8293128725874888,1.098581603210621,1.386512129443834,0.3053324657091387,0.3001608090126677,0.7449807624508752,1.273507949423856,0.5065145318186861,0.4937969063670404,0.77352127236188,0.885836777713374,0.8683370318462162,0.7127874934165255,1.070429380374498,0.6641389506500464,0.6466331670022194,0.8814930234548398,1.094189005390061,497.6190476190476,815.1282051282052,824.3956043956044,753.0769230769231,410.1831501831502,-0.695984,0.184509,0.661621,11.110535,-10.011444,39.440155,1,4,1,1,2,60.000000
2023-08-31 16:49:56.729,,,,,,,,,,,,,,,,,,,,,,,,,,,,,,,,,,,,,,/muse/elements/blink
2023-08-31 16:49:56.932,1.401967505948654,0.5206027795638314,0.8293128725874888,1.098581603210621,1.386512129443834,0.3053324657091387,0.3001608090126677,0.7449807624508752,1.273507949423856,0.5065145318186861,0.4937969063670404,0.77352127236188,0.885836777713374,0.8683370318462162,0.7127874934165255,1.070429380374498,0.6641389506500464,0.6466331670022194,0.8814930234548398,1.094189005390061,539.5238095238095,812.3076923076924,774.8351648351648,771.2087912087912,752.6739926739926,-0.436096,0.520935,0.691284,3.663635,-8.052521,4.598236,1,4,1,1,2,60.000000
2023-08-31 16:49:57.029,,,,,,,,,,,,,,,,,,,,,,,,,,,,,,,,,,,,,,/muse/elements/blink
2023-08-31 16:49:57.511,,,,,,,,,,,,,,,,,,,,,,,,,,,,,,,,,,,,,,/muse/elements/blink
2023-08-31 16:49:57.932,1.401967505948654,0.5206027795638314,0.8293128725874888,1.098581603210621,1.386512129443834,0.3053324657091387,0.3001608090126677,0.7449807624508752,1.273507949423856,0.5065145318186861,0.4937969063670404,0.77352127236188,0.885836777713374,0.8683370318462162,0.7127874934165255,1.070429380374498,0.6641389506500464,0.6466331670022194,0.8814930234548398,1.094189005390061,1422.344322344322,777.2527472527473,769.1941391941392,861.4652014652015,1211.611721611722,-0.425171,0.659302,0.615112,4.119720,-4.889832,3.102875,1,4,1,1,2,55.000000
2023-08-31 16:49:58.932,1.401967505948654,0.9226500637349732,0.9294281181375671,1.098581603210621,1.386512129443834,0.2724023290941254,0.3257662148400114,0.7449807624508752,1.273507949423856,0.449203305059536,0.1556982172865296,0.77352127236188,0.885836777713374,0.5644764601671159,0.6331103045171412,1.070429380374498,0.6641389506500464,0.6587003861738512,0.2458081598341542,1.094189005390061,1172.124542124542,809.8901098901099,794.981684981685,839.7069597069598,577.8021978021978,-0.453125,0.522217,0.685547,2.960815,-5.136566,-0.179443,1,4,1,1,2,55.000000
2023-08-31 16:49:59.483,,,,,,,,,,,,,,,,,,,,,,,,,,,,,,,,,,,,,,/muse/elements/blink
2023-08-31 16:49:59.932,1.401967505948654,0.9226500637349732,0.5790776562292916,0.7446011226744611,1.386512129443834,0.2724023290941254,-0.08803616488944388,0.6128481659550595,1.273507949423856,0.449203305059536,0.3892909910394629,1.15158117649103,0.885836777713374,0.5644764601671159,0.6420867320504622,1.240780822674685,0.6641389506500464,0.6587003861738512,0.4687712392434598,0.9571558781183851,1600.43956043956,793.7728937728938,770.8058608058608,793.3699633699634,846.959706959707,-0.344055,0.317261,0.869690,-20.292053,-3.491669,-7.065582,1,4,1,1,1,55.000000
2023-08-31 16:50:00.572,,,,,,,,,,,,,,,,,,,,,,,,,,,,,,,,,,,,,,/muse/elements/jaw_clench
2023-08-31 16:50:00.937,1.401967505948654,0.9226500637349732,0.525295160370828,0.8062306880973297,1.386512129443834,0.2724023290941254,-0.476527177734838,0.5788994821398866,1.273507949423856,0.449203305059536,0.1873329096281091,0.9313059385453765,0.885836777713374,0.5644764601671159,0.7390579637559819,1.212522828089947,0.6641389506500464,0.6587003861738512,0.6290023314393903,0.9147361498728849,31.83150183150183,789.7435897435897,831.6483516483516,965.0183150183151,424.2857142857143,-0.661072,0.081177,0.734619,68.240814,-0.142059,-110.357666,1,4,1,1,1,55.000000
2023-08-31 16:50:01.018,,,,,,,,,,,,,,,,,,,,,,,,,,,,,,,,,,,,,,/muse/elements/blink
2023-08-31 16:50:01.067,,,,,,,,,,,,,,,,,,,,,,,,,,,,,,,,,,,,,,/muse/elements/jaw_clench
2023-08-31 16:50:01.312,,,,,,,,,,,,,,,,,,,,,,,,,,,,,,,,,,,,,,/muse/elements/jaw_clench
2023-08-31 16:50:01.406,,,,,,,,,,,,,,,,,,,,,,,,,,,,,,,,,,,,,,/muse/elements/blink
2023-08-31 16:50:01.939,1.401967505948654,0.9226500637349732,0.6618314917376358,0.8062306880973297,1.386512129443834,0.2724023290941254,-0.4044202569934784,0.5788994821398866,1.273507949423856,0.449203305059536,0.1663262246318882,0.9313059385453765,0.885836777713374,0.5644764601671159,0.7423436549442298,1.212522828089947,0.6641389506500464,0.6587003861738512,0.6994835035702569,0.9147361498728849,220,792.1611721611722,843.3333333333334,789.3406593406594,597.1428571428571,-0.756653,0.020203,0.657349,0.097198,-12.605896,5.697327,1,4,1,1,1,55.000000
2023-08-31 16:50:02.532,,,,,,,,,,,,,,,,,,,,,,,,,,,,,,,,,,,,,,/muse/elements/blink
2023-08-31 16:50:02.532,,,,,,,,,,,,,,,,,,,,,,,,,,,,,,,,,,,,,,/muse/elements/jaw_clench
2023-08-31 16:50:02.714,,,,,,,,,,,,,,,,,,,,,,,,,,,,,,,,,,,,,,/muse/elements/blink
2023-08-31 16:50:02.932,1.401967505948654,0.9226500637349732,0.6618314917376358,0.8062306880973297,1.386512129443834,0.2724023290941254,-0.4044202569934784,0.5788994821398866,1.273507949423856,0.449203305059536,0.1663262246318882,0.9313059385453765,0.885836777713374,0.5644764601671159,0.7423436549442298,1.212522828089947,0.6641389506500464,0.6587003861738512,0.6994835035702569,0.9147361498728849,634.6153846153846,814.3223443223443,809.4871794871796,848.1684981684982,824.3956043956044,-0.585510,0.066101,0.795776,0.456085,-8.224487,12.433929,1,4,1,1,2,55.000000
2023-08-31 16:50:03.938,1.401967505948654,0.9226500637349732,0.6618314917376358,0.8062306880973297,1.386512129443834,0.2724023290941254,-0.4044202569934784,0.5788994821398866,1.273507949423856,0.449203305059536,0.1663262246318882,0.9313059385453765,0.885836777713374,0.5644764601671159,0.7423436549442298,1.212522828089947,0.6641389506500464,0.6587003861738512,0.6994835035702569,0.9147361498728849,626.5567765567765,809.4871794871796,801.4285714285714,764.3589743589744,323.1501831501832,-0.557556,0.151489,0.801819,11.177826,-7.686157,-9.585266,1,4,1,1,2,55.000000
2023-08-31 16:50:04.201,,,,,,,,,,,,,,,,,,,,,,,,,,,,,,,,,,,,,,/muse/elements/jaw_clench
2023-08-31 16:50:04.452,,,,,,,,,,,,,,,,,,,,,,,,,,,,,,,,,,,,,,/muse/elements/jaw_clench
2023-08-31 16:50:04.931,1.401967505948654,0.9226500637349732,0.6618314917376358,0.8062306880973297,1.386512129443834,0.2724023290941254,-0.4044202569934784,0.5788994821398866,1.273507949423856,0.449203305059536,0.1663262246318882,0.9313059385453765,0.885836777713374,0.5644764601671159,0.7423436549442298,1.212522828089947,0.6641389506500464,0.6587003861738512,0.6994835035702569,0.9147361498728849,676.9230769230769,795.3846153846154,788.5347985347986,813.5164835164835,707.1428571428571,-0.618103,0.050720,0.768921,-10.175934,-7.304840,19.477081,1,4,1,1,2,55.000000
2023-08-31 16:50:05.931,1.401967505948654,0.9226500637349732,0.6618314917376358,0.8062306880973297,1.386512129443834,0.2724023290941254,-0.4044202569934784,0.5788994821398866,1.273507949423856,0.449203305059536,0.1663262246318882,0.9313059385453765,0.885836777713374,0.5644764601671159,0.7423436549442298,1.212522828089947,0.6641389506500464,0.6587003861738512,0.6994835035702569,0.9147361498728849,713.5897435897436,749.8534798534798,780.4761904761905,935.6043956043957,712.3809523809524,-0.824646,0.046204,0.576050,9.091797,-7.611389,-6.863708,1,4,1,1,2,55.000000
2023-08-31 16:50:06.043,,,,,,,,,,,,,,,,,,,,,,,,,,,,,,,,,,,,,,/muse/elements/jaw_clench
2023-08-31 16:50:06.932,1.401967505948654,0.9226500637349732,0.9173809529608034,0.8062306880973297,1.386512129443834,0.2724023290941254,0.2687382047693802,0.5788994821398866,1.273507949423856,0.449203305059536,0.3707796107311195,0.9313059385453765,0.885836777713374,0.5644764601671159,0.5729445351968609,1.212522828089947,0.6641389506500464,0.6587003861738512,0.8608301959876614,0.9147361498728849,763.956043956044,831.6483516483516,853.4065934065934,877.5824175824176,1050.842490842491,-0.750122,0.110168,0.650574,1.510315,-6.497345,1.525269,1,4,1,1,2,55.000000
2023-08-31 16:50:07.931,1.401967505948654,0.9226500637349732,0.9173809529608034,0.8062306880973297,1.386512129443834,0.2724023290941254,0.2687382047693802,0.5788994821398866,1.273507949423856,0.449203305059536,0.3707796107311195,0.9313059385453765,0.885836777713374,0.5644764601671159,0.5729445351968609,1.212522828089947,0.6641389506500464,0.6587003861738512,0.8608301959876614,0.9147361498728849,881.2087912087912,766.7765567765568,792.1611721611722,804.2490842490843,460.5494505494506,-0.641357,0.123596,0.753662,-5.465546,-24.568787,10.848846,1,2,1,1,2,60.000000
2023-08-31 16:50:08.931,1.401967505948654,0.8906252674483121,0.9173809529608034,0.8062306880973297,1.386512129443834,1.047800584828541,0.2687382047693802,0.5788994821398866,1.273507949423856,1.104839036735241,0.3707796107311195,0.9313059385453765,0.885836777713374,0.6051842917518003,0.5729445351968609,1.212522828089947,0.6641389506500464,0.311985141058197,0.8608301959876614,0.9147361498728849,888.8644688644689,792.5641025641025,780.0732600732601,819.96336996337,559.2673992673992,-0.453247,0.215393,0.847290,-30.699768,22.931366,67.485657,1,4,1,1,2,60.000000
2023-08-31 16:50:09.237,,,,,,,,,,,,,,,,,,,,,,,,,,,,,,,,,,,,,,/muse/elements/blink
2023-08-31 16:50:09.934,1.401967505948654,0.8906252674483121,0.9173809529608034,0.8062306880973297,1.386512129443834,1.047800584828541,0.2687382047693802,0.5788994821398866,1.273507949423856,1.104839036735241,0.3707796107311195,0.9313059385453765,0.885836777713374,0.6051842917518003,0.5729445351968609,1.212522828089947,0.6641389506500464,0.311985141058197,0.8608301959876614,0.9147361498728849,282.8571428571429,784.5054945054945,782.4908424908425,735.3479853479854,114.8351648351648,-0.569641,0.180115,0.791748,-1.899109,-0.770111,7.125397,1,4,1,1,2,60.000000
2023-08-31 16:50:10.622,,,,,,,,,,,,,,,,,,,,,,,,,,,,,,,,,,,,,,/muse/elements/blink
2023-08-31 16:50:10.913,,,,,,,,,,,,,,,,,,,,,,,,,,,,,,,,,,,,,,/muse/elements/jaw_clench
2023-08-31 16:50:10.931,1.401967505948654,0.8906252674483121,0.9173809529608034,0.8062306880973297,1.386512129443834,1.047800584828541,0.2687382047693802,0.5788994821398866,1.273507949423856,1.104839036735241,0.3707796107311195,0.9313059385453765,0.885836777713374,0.6051842917518003,0.5729445351968609,1.212522828089947,0.6641389506500464,0.311985141058197,0.8608301959876614,0.9147361498728849,787.3260073260074,769.5970695970697,830.8424908424909,793.7728937728938,196.6300366300366,-0.673645,0.178772,0.723145,9.174042,17.091980,-15.013428,1,2,1,1,2,60.000000
2023-08-31 16:50:11.336,,,,,,,,,,,,,,,,,,,,,,,,,,,,,,,,,,,,,,/muse/elements/blink
2023-08-31 16:50:11.336,,,,,,,,,,,,,,,,,,,,,,,,,,,,,,,,,,,,,,/muse/elements/jaw_clench
2023-08-31 16:50:11.931,1.401967505948654,0.8906252674483121,0.9173809529608034,0.8062306880973297,1.386512129443834,1.047800584828541,0.2687382047693802,0.5788994821398866,1.273507949423856,1.104839036735241,0.3707796107311195,0.9313059385453765,0.885836777713374,0.6051842917518003,0.5729445351968609,1.212522828089947,0.6641389506500464,0.311985141058197,0.8608301959876614,0.9147361498728849,1315.567765567766,780.4761904761905,791.7582417582418,833.2600732600733,354.981684981685,-0.521912,0.227051,0.788208,-10.848846,-25.451050,23.940735,1,4,1,1,2,60.000000
2023-08-31 16:50:12.029,,,,,,,,,,,,,,,,,,,,,,,,,,,,,,,,,,,,,,/muse/elements/blink
2023-08-31 16:50:12.119,,,,,,,,,,,,,,,,,,,,,,,,,,,,,,,,,,,,,,/muse/elements/jaw_clench
2023-08-31 16:50:12.361,,,,,,,,,,,,,,,,,,,,,,,,,,,,,,,,,,,,,,/muse/elements/blink
2023-08-31 16:50:12.561,,,,,,,,,,,,,,,,,,,,,,,,,,,,,,,,,,,,,,/muse/elements/blink
2023-08-31 16:50:12.931,1.401967505948654,0.8906252674483121,0.9173809529608034,0.8062306880973297,1.386512129443834,1.047800584828541,0.2687382047693802,0.5788994821398866,1.273507949423856,1.104839036735241,0.3707796107311195,0.9313059385453765,0.885836777713374,0.6051842917518003,0.5729445351968609,1.212522828089947,0.6641389506500464,0.311985141058197,0.8608301959876614,0.9147361498728849,1054.468864468864,798.6080586080586,791.7582417582418,783.2967032967033,524.6153846153846,-0.602966,0.248840,0.746582,11.319885,9.017029,-11.850739,1,4,1,1,2,60.000000
2023-08-31 16:50:13.071,,,,,,,,,,,,,,,,,,,,,,,,,,,,,,,,,,,,,,/muse/elements/jaw_clench
2023-08-31 16:50:13.360,,,,,,,,,,,,,,,,,,,,,,,,,,,,,,,,,,,,,,/muse/elements/blink
2023-08-31 16:50:13.673,,,,,,,,,,,,,,,,,,,,,,,,,,,,,,,,,,,,,,/muse/elements/jaw_clench
2023-08-31 16:50:13.853,,,,,,,,,,,,,,,,,,,,,,,,,,,,,,,,,,,,,,/muse/elements/jaw_clench
2023-08-31 16:50:13.936,1.401967505948654,0.8906252674483121,0.9173809529608034,0.8062306880973297,1.386512129443834,1.047800584828541,0.2687382047693802,0.5788994821398866,1.273507949423856,1.104839036735241,0.3707796107311195,0.9313059385453765,0.885836777713374,0.6051842917518003,0.5729445351968609,1.212522828089947,0.6641389506500464,0.311985141058197,0.8608301959876614,0.9147361498728849,349.3406593406593,815.5311355311355,832.0512820512821,691.4285714285714,9.267399267399268,-0.647827,0.246216,0.706482,0.373840,-4.336548,0.321503,1,4,1,1,2,60.000000
2023-08-31 16:50:14.700,,,,,,,,,,,,,,,,,,,,,,,,,,,,,,,,,,,,,,/muse/elements/blink
2023-08-31 16:50:14.931,1.401967505948654,0.07472530709431911,0.3557804589648636,0.8062306880973297,1.386512129443834,-0.05468058910934364,0.1537829731089874,0.5788994821398866,1.273507949423856,0.2537730712713781,0.2523123368061685,0.9313059385453765,0.885836777713374,0.9297274255937812,1.020974194408484,1.212522828089947,0.6641389506500464,0.9632568002519241,0.8450093301095064,0.9147361498728849,722.4542124542124,828.8278388278388,765.5677655677656,742.1978021978023,60.43956043956044,-0.578064,0.254272,0.768921,0.037384,-8.852539,1.405640,1,2,1,1,2,60.000000
2023-08-31 16:50:14.987,,,,,,,,,,,,,,,,,,,,,,,,,,,,,,,,,,,,,,/muse/elements/blink
2023-08-31 16:50:15.931,1.401967505948654,0.3559663432054896,0.3249854069624739,1.073487369706244,1.386512129443834,0.09652077002045382,0.1890129627669904,1.261217512274087,1.273507949423856,0.6855409633288077,0.278448237214455,1.412470869613682,0.885836777713374,0.843627703544292,0.9024255418764954,1.371438585725132,0.6641389506500464,0.8825723839755287,0.8796762911664164,1.38731268936098,892.0879120879121,823.5897435897436,860.2564102564103,833.2600732600733,298.1684981684982,-0.500549,0.208313,0.829407,-0.770111,-6.430054,4.306641,1,2,1,1,1,60.000000
2023-08-31 16:50:16.116,,,,,,,,,,,,,,,,,,,,,,,,,,,,,,,,,,,,,,/muse/elements/blink
2023-08-31 16:50:16.827,,,,,,,,,,,,,,,,,,,,,,,,,,,,,,,,,,,,,,/muse/elements/blink
2023-08-31 16:50:16.916,,,,,,,,,,,,,,,,,,,,,,,,,,,,,,,,,,,,,,/muse/elements/jaw_clench
2023-08-31 16:50:16.931,1.401967505948654,0.5692508493785352,0.3925646771436588,1.073487369706244,1.386512129443834,0.2349654351404901,0.05520463657563307,1.261217512274087,1.273507949423856,0.6855409633288077,0.2144730840305005,1.412470869613682,0.885836777713374,0.7046723707755004,0.894295525632791,1.371438585725132,0.6641389506500464,0.7829813316378755,0.8241232322775,1.38731268936098,31.42857142857143,801.4285714285714,815.934065934066,758.3150183150184,0,-0.567993,0.184448,0.793091,43.073883,7.708588,-92.981567,1,4,1,1,1,60.000000
2023-08-31 16:50:17.338,,,,,,,,,,,,,,,,,,,,,,,,,,,,,,,,,,,,,,/muse/elements/blink
2023-08-31 16:50:17.931,1.401967505948654,0.5692508493785352,0.3925646771436588,1.073487369706244,1.386512129443834,0.2349654351404901,0.05520463657563307,1.261217512274087,1.273507949423856,0.6855409633288077,0.2144730840305005,1.412470869613682,0.885836777713374,0.7046723707755004,0.894295525632791,1.371438585725132,0.6641389506500464,0.7829813316378755,0.8241232322775,1.38731268936098,451.2820512820513,766.7765567765568,814.3223443223443,647.9120879120879,0,-0.653503,0.028992,0.745911,4.269257,-3.708496,2.280426,1,4,1,1,2,60.000000
2023-08-31 16:50:18.935,1.401967505948654,0.5692508493785352,0.3925646771436588,1.073487369706244,1.386512129443834,0.2349654351404901,0.05520463657563307,1.261217512274087,1.273507949423856,0.6855409633288077,0.2144730840305005,1.412470869613682,0.885836777713374,0.7046723707755004,0.894295525632791,1.371438585725132,0.6641389506500464,0.7829813316378755,0.8241232322775,1.38731268936098,1039.96336996337,814.3223443223443,813.919413919414,716.8131868131868,107.985347985348,-0.592102,0.041870,0.797302,1.697235,-5.742188,1.951447,1,2,1,1,2,65.000000
2023-08-31 16:50:19.856,,,,,,,,,,,,,,,,,,,,,,,,,,,,,,,,,,,,,,/muse/elements/blink
2023-08-31 16:50:19.931,1.401967505948654,0.4828206084716011,0.3925646771436588,1.073487369706244,1.386512129443834,0.4498038028419368,0.05520463657563307,1.261217512274087,1.273507949423856,0.566706686435349,0.2144730840305005,1.412470869613682,0.885836777713374,1.053203635974278,0.894295525632791,1.371438585725132,0.6641389506500464,0.9136260718787358,0.8241232322775,1.38731268936098,702.7106227106227,813.1135531135532,796.5934065934066,700.2930402930403,16.11721611721612,-0.573120,0.046570,0.805542,3.544006,-3.798218,-4.067383,1,2,1,1,2,65.000000
2023-08-31 16:50:20.894,,,,,,,,,,,,,,,,,,,,,,,,,,,,,,,,,,,,,,/muse/elements/blink
2023-08-31 16:50:20.894,,,,,,,,,,,,,,,,,,,,,,,,,,,,,,,,,,,,,,/muse/elements/jaw_clench
2023-08-31 16:50:20.930,1.401967505948654,0.5805397948483343,0.3925646771436588,1.073487369706244,1.386512129443834,0.3169057216581741,0.05520463657563307,1.261217512274087,1.273507949423856,0.6414361304529069,0.2144730840305005,1.412470869613682,0.885836777713374,1.047069066819809,0.894295525632791,1.371438585725132,0.6641389506500464,0.9122219646659561,0.8241232322775,1.38731268936098,1006.117216117216,785.7142857142858,811.9047619047619,725.6776556776557,0,-0.707458,0.042603,0.694580,0.792542,14.609680,2.788849,1,4,1,1,2,65.000000
2023-08-31 16:50:21.600,,,,,,,,,,,,,,,,,,,,,,,,,,,,,,,,,,,,,,/muse/elements/jaw_clench
2023-08-31 16:50:21.937,1.401967505948654,0.6740700382371143,0.3925646771436588,1.073487369706244,1.386512129443834,0.09231552503446901,0.05520463657563307,1.261217512274087,1.273507949423856,0.3901020698971474,0.2144730840305005,1.412470869613682,0.885836777713374,1.040997528659887,0.894295525632791,1.371438585725132,0.6641389506500464,0.9171617345365458,0.8241232322775,1.38731268936098,415.018315018315,823.992673992674,836.4835164835165,748.6446886446887,63.26007326007326,-0.755676,0.244568,0.612488,7.947845,-11.439514,1.226196,1,4,1,1,2,65.000000
2023-08-31 16:50:22.393,,,,,,,,,,,,,,,,,,,,,,,,,,,,,,,,,,,,,,/muse/elements/blink
2023-08-31 16:50:22.813,,,,,,,,,,,,,,,,,,,,,,,,,,,,,,,,,,,,,,/muse/elements/blink
2023-08-31 16:50:22.931,1.401967505948654,0.6740700382371143,0.3925646771436588,0.6441037426880655,1.386512129443834,0.09231552503446901,0.05520463657563307,0.7457620972884131,1.273507949423856,0.3901020698971474,0.2144730840305005,1.049013849010528,0.885836777713374,1.040997528659887,0.894295525632791,1.250556383801265,0.6641389506500464,0.9171617345365458,0.8241232322775,1.220240121494367,578.2051282051282,810.6959706959707,812.7106227106227,705.5311355311355,0,-0.725891,0.233154,0.634644,2.130890,-4.815063,-0.485992,1,4,1,1,1,65.000000
2023-08-31 16:50:23.101,,,,,,,,,,,,,,,,,,,,,,,,,,,,,,,,,,,,,,/muse/elements/jaw_clench
2023-08-31 16:50:23.434,,,,,,,,,,,,,,,,,,,,,,,,,,,,,,,,,,,,,,/muse/elements/jaw_clench
2023-08-31 16:50:23.931,1.401967505948654,0.6740700382371143,0.4435259403232409,0.4863771456703826,1.386512129443834,0.09231552503446901,0.06070643881752475,0.6827348036401306,1.273507949423856,0.3901020698971474,0.5193336083949842,0.980953870078911,0.885836777713374,1.040997528659887,0.9056892360959162,1.263918865247809,0.6641389506500464,0.9171617345365458,0.8336836303247099,1.297168207293856,638.2417582417582,785.7142857142858,791.3553113553114,838.4981684981685,573.3699633699634,-0.649170,0.196411,0.714111,-1.001892,-35.948486,-10.721741,1,4,1,1,1,65.000000
2023-08-31 16:50:24.323,,,,,,,,,,,,,,,,,,,,,,,,,,,,,,,,,,,,,,/muse/elements/blink
2023-08-31 16:50:24.834,,,,,,,,,,,,,,,,,,,,,,,,,,,,,,,,,,,,,,/muse/elements/jaw_clench
2023-08-31 16:50:24.933,1.401967505948654,0.8050199814352248,0.205618507670425,0.5189948548719512,1.386512129443834,0.3632194347877351,0.0210482662336517,0.5404706097725408,1.273507949423856,0.601204643887862,0.398872955157305,0.8747158429563624,0.885836777713374,0.7320999303506538,0.9534308335560946,1.260080544897228,0.6641389506500464,0.6449978852686036,0.5555587354636349,1.262190953423675,0,738.5714285714286,772.8205128205128,780.8791208791209,76.95970695970696,-0.399109,0.206909,0.864380,-37.735443,22.579956,91.501160,1,4,1,1,1,65.000000
2023-08-31 16:50:25.931,1.401967505948654,0.9259388973047834,0.3838559501352359,0.5189948548719512,1.386512129443834,0.3937879568140593,0.1143092688831088,0.5404706097725408,1.273507949423856,0.601204643887862,0.2583699331296416,0.8747158429563624,0.885836777713374,0.7995855681471078,0.9693877549425729,1.260080544897228,0.6641389506500464,0.4839988077184881,0.3943982147808812,1.262190953423675,913.4432234432235,836.4835164835165,816.3369963369963,830.8424908424909,510.1098901098901,-0.418213,0.231384,0.868530,1.719666,-0.037384,-0.456085,1,4,1,1,2,65.000000
2023-08-31 16:50:26.670,,,,,,,,,,,,,,,,,,,,,,,,,,,,,,,,,,,,,,/muse/elements/blink
2023-08-31 16:50:26.931,1.401967505948654,0.9259388973047834,0.3838559501352359,0.5189948548719512,1.386512129443834,0.3937879568140593,0.1143092688831088,0.5404706097725408,1.273507949423856,0.601204643887862,0.2583699331296416,0.8747158429563624,0.885836777713374,0.7995855681471078,0.9693877549425729,1.260080544897228,0.6641389506500464,0.4839988077184881,0.3943982147808812,1.262190953423675,245.3846153846154,765.5677655677656,767.1794871794872,851.7948717948718,938.4249084249085,-0.534302,0.223389,0.809509,17.787323,-7.880554,-26.273499,1,4,1,1,2,65.000000
2023-08-31 16:50:27.943,1.401967505948654,0.9259388973047834,0.3838559501352359,0.5189948548719512,1.386512129443834,0.3937879568140593,0.1143092688831088,0.5404706097725408,1.273507949423856,0.601204643887862,0.2583699331296416,0.8747158429563624,0.885836777713374,0.7995855681471078,0.9693877549425729,1.260080544897228,0.6641389506500464,0.4839988077184881,0.3943982147808812,1.262190953423675,659.5970695970697,781.2820512820513,819.96336996337,773.6263736263736,428.3150183150183,-0.410767,-0.074829,0.875122,0.149536,-15.364838,-40.142975,1,4,1,1,2,65.000000
2023-08-31 16:50:28.106,,,,,,,,,,,,,,,,,,,,,,,,,,,,,,,,,,,,,,/muse/elements/jaw_clench
2023-08-31 16:50:28.931,1.401967505948654,1.181981030113994,0.3838559501352359,0.5189948548719512,1.386512129443834,0.4083322874042952,0.1143092688831088,0.5404706097725408,1.273507949423856,0.5373278176059186,0.2583699331296416,0.8747158429563624,0.885836777713374,0.6438509136017497,0.9693877549425729,1.260080544897228,0.6641389506500464,0.4558478747136971,0.3943982147808812,1.262190953423675,1062.930402930403,759.1208791208792,765.9706959706959,911.0256410256411,1068.974358974359,-0.490112,-0.123657,0.866577,5.959015,-3.932800,2.781372,1,2,1,1,2,60.000000
2023-08-31 16:50:29.723,,,,,,,,,,,,,,,,,,,,,,,,,,,,,,,,,,,,,,/muse/elements/blink
2023-08-31 16:50:29.931,1.401967505948654,1.181981030113994,0.3838559501352359,0.5189948548719512,1.386512129443834,0.4083322874042952,0.1143092688831088,0.5404706097725408,1.273507949423856,0.5373278176059186,0.2583699331296416,0.8747158429563624,0.885836777713374,0.6438509136017497,0.9693877549425729,1.260080544897228,0.6641389506500464,0.4558478747136971,0.3943982147808812,1.262190953423675,956.5567765567766,812.7106227106227,809.0842490842491,814.3223443223443,1269.6336996337,-0.345459,-0.075623,0.913208,3.902893,-1.764526,10.131073,1,2,1,1,2,60.000000
2023-08-31 16:50:30.747,,,,,,,,,,,,,,,,,,,,,,,,,,,,,,,,,,,,,,/muse/elements/blink
2023-08-31 16:50:30.936,1.401967505948654,1.181981030113994,0.3838559501352359,0.5189948548719512,1.386512129443834,0.4083322874042952,0.1143092688831088,0.5404706097725408,1.273507949423856,0.5373278176059186,0.2583699331296416,0.8747158429563624,0.885836777713374,0.6438509136017497,0.9693877549425729,1.260080544897228,0.6641389506500464,0.4558478747136971,0.3943982147808812,1.262190953423675,0,807.4725274725275,790.5494505494506,784.5054945054945,1043.992673992674,-0.534912,0.135071,0.833130,12.987213,3.439331,-10.654449,1,2,1,1,2,60.000000
2023-08-31 16:50:31.528,,,,,,,,,,,,,,,,,,,,,,,,,,,,,,,,,,,,,,/muse/elements/jaw_clench
2023-08-31 16:50:31.792,,,,,,,,,,,,,,,,,,,,,,,,,,,,,,,,,,,,,,/muse/elements/jaw_clench
2023-08-31 16:50:31.945,1.401967505948654,1.181981030113994,0.3838559501352359,0.5189948548719512,1.386512129443834,0.4083322874042952,0.1143092688831088,0.5404706097725408,1.273507949423856,0.5373278176059186,0.2583699331296416,0.8747158429563624,0.885836777713374,0.6438509136017497,0.9693877549425729,1.260080544897228,0.6641389506500464,0.4558478747136971,0.3943982147808812,1.262190953423675,233.2967032967033,783.6996336996338,882.014652014652,911.8315018315019,1280.10989010989,-0.831177,0.030029,0.530579,15.529327,-33.540955,-11.155396,1,4,1,1,2,60.000000
2023-08-31 16:50:31.951,,,,,,,,,,,,,,,,,,,,,,,,,,,,,,,,,,,,,,/muse/elements/blink
2023-08-31 16:50:32.062,,,,,,,,,,,,,,,,,,,,,,,,,,,,,,,,,,,,,,/muse/elements/jaw_clench
2023-08-31 16:50:32.239,,,,,,,,,,,,,,,,,,,,,,,,,,,,,,,,,,,,,,/muse/elements/blink
2023-08-31 16:50:32.239,,,,,,,,,,,,,,,,,,,,,,,,,,,,,,,,,,,,,,/muse/elements/jaw_clench
2023-08-31 16:50:32.931,1.401967505948654,1.181981030113994,0.3838559501352359,0.5189948548719512,1.386512129443834,0.4083322874042952,0.1143092688831088,0.5404706097725408,1.273507949423856,0.5373278176059186,0.2583699331296416,0.8747158429563624,0.885836777713374,0.6438509136017497,0.9693877549425729,1.260080544897228,0.6641389506500464,0.4558478747136971,0.3943982147808812,1.262190953423675,548.3882783882784,793.7728937728938,797.8021978021978,858.2417582417582,1361.098901098901,-0.747375,0.039795,0.669128,-0.807495,-7.962799,-2.998199,1,4,1,1,2,60.000000
2023-08-31 16:50:33.931,1.401967505948654,1.181981030113994,0.3838559501352359,0.5189948548719512,1.386512129443834,0.4083322874042952,0.1143092688831088,0.5404706097725408,1.273507949423856,0.5373278176059186,0.2583699331296416,0.8747158429563624,0.885836777713374,0.6438509136017497,0.9693877549425729,1.260080544897228,0.6641389506500464,0.4558478747136971,0.3943982147808812,1.262190953423675,1032.307692307692,832.8571428571429,818.7545787545788,965.4212454212454,1412.271062271062,-0.656372,0.031311,0.769836,-14.878845,-65.653839,25.503387,1,4,1,1,2,60.000000
2023-08-31 16:50:34.078,,,,,,,,,,,,,,,,,,,,,,,,,,,,,,,,,,,,,,/muse/elements/blink
2023-08-31 16:50:34.213,,,,,,,,,,,,,,,,,,,,,,,,,,,,,,,,,,,,,,/muse/elements/jaw_clench
2023-08-31 16:50:34.571,,,,,,,,,,,,,,,,,,,,,,,,,,,,,,,,,,,,,,/muse/elements/jaw_clench
2023-08-31 16:50:34.814,,,,,,,,,,,,,,,,,,,,,,,,,,,,,,,,,,,,,,/muse/elements/jaw_clench
2023-08-31 16:50:34.905,,,,,,,,,,,,,,,,,,,,,,,,,,,,,,,,,,,,,,/muse/elements/blink
2023-08-31 16:50:34.938,1.401967505948654,1.181981030113994,0.3838559501352359,0.5189948548719512,1.386512129443834,0.4083322874042952,0.1143092688831088,0.5404706097725408,1.273507949423856,0.5373278176059186,0.2583699331296416,0.8747158429563624,0.885836777713374,0.6438509136017497,0.9693877549425729,1.260080544897228,0.6641389506500464,0.4558478747136971,0.3943982147808812,1.262190953423675,413.003663003663,811.0989010989011,840.1098901098901,893.2967032967033,1321.208791208791,-0.284241,0.094299,0.932678,6.474915,1.704712,10.415192,1,4,1,1,2,60.000000
2023-08-31 16:50:35.106,,,,,,,,,,,,,,,,,,,,,,,,,,,,,,,,,,,,,,/muse/elements/blink
2023-08-31 16:50:35.931,1.401967505948654,1.181981030113994,0.3838559501352359,0.5189948548719512,1.386512129443834,0.4083322874042952,0.1143092688831088,0.5404706097725408,1.273507949423856,0.5373278176059186,0.2583699331296416,0.8747158429563624,0.885836777713374,0.6438509136017497,0.9693877549425729,1.260080544897228,0.6641389506500464,0.4558478747136971,0.3943982147808812,1.262190953423675,1110.07326007326,782.893772893773,825.6043956043957,614.4688644688645,1210.805860805861,-0.376709,0.149902,0.904602,4.067383,0.149536,-2.497253,1,4,1,1,2,60.000000
2023-08-31 16:50:36.407,,,,,,,,,,,,,,,,,,,,,,,,,,,,,,,,,,,,,,/muse/elements/blink
2023-08-31 16:50:36.407,,,,,,,,,,,,,,,,,,,,,,,,,,,,,,,,,,,,,,/muse/elements/jaw_clench
2023-08-31 16:50:36.935,1.401967505948654,1.181981030113994,0.3838559501352359,0.5189948548719512,1.386512129443834,0.4083322874042952,0.1143092688831088,0.5404706097725408,1.273507949423856,0.5373278176059186,0.2583699331296416,0.8747158429563624,0.885836777713374,0.6438509136017497,0.9693877549425729,1.260080544897228,0.6641389506500464,0.4558478747136971,0.3943982147808812,1.262190953423675,1578.278388278388,419.4505494505495,1625.421245421245,1309.120879120879,1307.912087912088,-0.484192,0.131592,0.920898,1.300964,49.900208,-7.716064,1,4,4,4,2,60.000000
2023-08-31 16:50:37.106,,,,,,,,,,,,,,,,,,,,,,,,,,,,,,,,,,,,,,/muse/elements/blink
2023-08-31 16:50:37.537,,,,,,,,,,,,,,,,,,,,,,,,,,,,,,,,,,,,,,/muse/elements/blink
2023-08-31 16:50:37.933,1.401967505948654,1.181981030113994,0.3838559501352359,0.5189948548719512,1.386512129443834,0.4083322874042952,0.1143092688831088,0.5404706097725408,1.273507949423856,0.5373278176059186,0.2583699331296416,0.8747158429563624,0.885836777713374,0.6438509136017497,0.9693877549425729,1.260080544897228,0.6641389506500464,0.4558478747136971,0.3943982147808812,1.262190953423675,1629.047619047619,765.1648351648352,772.4175824175825,1094.358974358974,1456.996336996337,-0.482544,0.162415,0.847107,4.089813,-5.704803,0.792542,1,4,4,4,4,60.000000
2023-08-31 16:50:38.055,,,,,,,,,,,,,,,,,,,,,,,,,,,,,,,,,,,,,,/muse/elements/blink
2023-08-31 16:50:38.238,,,,,,,,,,,,,,,,,,,,,,,,,,,,,,,,,,,,,,/muse/elements/blink
2023-08-31 16:50:38.578,,,,,,,,,,,,,,,,,,,,,,,,,,,,,,,,,,,,,,/muse/elements/blink
2023-08-31 16:50:38.671,,,,,,,,,,,,,,,,,,,,,,,,,,,,,,,,,,,,,,/muse/elements/jaw_clench
2023-08-31 16:50:38.785,,,,,,,,,,,,,,,,,,,,,,,,,,,,,,,,,,,,,,/muse/elements/blink
2023-08-31 16:50:38.856,,,,,,,,,,,,,,,,,,,,,,,,,,,,,,,,,,,,,,/muse/elements/jaw_clench
2023-08-31 16:50:38.937,1.401967505948654,1.181981030113994,0.3838559501352359,0.5189948548719512,1.386512129443834,0.4083322874042952,0.1143092688831088,0.5404706097725408,1.273507949423856,0.5373278176059186,0.2583699331296416,0.8747158429563624,0.885836777713374,0.6438509136017497,0.9693877549425729,1.260080544897228,0.6641389506500464,0.4558478747136971,0.3943982147808812,1.262190953423675,1148.351648351648,694.6520146520147,699.8901098901099,835.2747252747253,1190.659340659341,-0.508362,0.181274,0.829346,1.801910,-3.484192,0.755157,1,4,2,2,2,55.000000
2023-08-31 16:50:39.547,,,,,,,,,,,,,,,,,,,,,,,,,,,,,,,,,,,,,,/muse/elements/jaw_clench
2023-08-31 16:50:39.931,1.401967505948654,1.181981030113994,0.3838559501352359,0.5189948548719512,1.386512129443834,0.4083322874042952,0.1143092688831088,0.5404706097725408,1.273507949423856,0.5373278176059186,0.2583699331296416,0.8747158429563624,0.885836777713374,0.6438509136017497,0.9693877549425729,1.260080544897228,0.6641389506500464,0.4558478747136971,0.3943982147808812,1.262190953423675,661.6117216117216,699.4871794871796,804.6520146520147,813.919413919414,936.8131868131868,-0.475464,0.165894,0.850891,4.194489,-9.719849,-5.876770,1,4,1,2,2,55.000000
2023-08-31 16:50:40.480,,,,,,,,,,,,,,,,,,,,,,,,,,,,,,,,,,,,,,/muse/elements/blink
2023-08-31 16:50:40.480,,,,,,,,,,,,,,,,,,,,,,,,,,,,,,,,,,,,,,/muse/elements/jaw_clench
2023-08-31 16:50:40.931,1.401967505948654,1.181981030113994,0.3838559501352359,0.5189948548719512,1.386512129443834,0.4083322874042952,0.1143092688831088,0.5404706097725408,1.273507949423856,0.5373278176059186,0.2583699331296416,0.8747158429563624,0.885836777713374,0.6438509136017497,0.9693877549425729,1.260080544897228,0.6641389506500464,0.4558478747136971,0.3943982147808812,1.262190953423675,721.6483516483516,784.5054945054945,804.2490842490843,858.6446886446887,1259.56043956044,-0.457703,0.161926,0.863037,1.390686,-3.708496,-1.525269,1,4,1,1,2,55.000000
2023-08-31 16:50:41.100,,,,,,,,,,,,,,,,,,,,,,,,,,,,,,,,,,,,,,/muse/elements/blink
2023-08-31 16:50:41.191,,,,,,,,,,,,,,,,,,,,,,,,,,,,,,,,,,,,,,/muse/elements/jaw_clench
2023-08-31 16:50:41.305,,,,,,,,,,,,,,,,,,,,,,,,,,,,,,,,,,,,,,/muse/elements/blink
2023-08-31 16:50:41.532,,,,,,,,,,,,,,,,,,,,,,,,,,,,,,,,,,,,,,/muse/elements/blink
2023-08-31 16:50:41.532,,,,,,,,,,,,,,,,,,,,,,,,,,,,,,,,,,,,,,/muse/elements/jaw_clench
2023-08-31 16:50:41.716,,,,,,,,,,,,,,,,,,,,,,,,,,,,,,,,,,,,,,/muse/elements/jaw_clench
2023-08-31 16:50:41.900,,,,,,,,,,,,,,,,,,,,,,,,,,,,,,,,,,,,,,/muse/elements/jaw_clench
2023-08-31 16:50:41.933,1.401967505948654,1.181981030113994,0.3838559501352359,0.5189948548719512,1.386512129443834,0.4083322874042952,0.1143092688831088,0.5404706097725408,1.273507949423856,0.5373278176059186,0.2583699331296416,0.8747158429563624,0.885836777713374,0.6438509136017497,0.9693877549425729,1.260080544897228,0.6641389506500464,0.4558478747136971,0.3943982147808812,1.262190953423675,1339.340659340659,773.2234432234433,810.6959706959707,919.0842490842491,718.8278388278388,-0.411926,0.169617,0.874512,2.168274,-1.914062,4.882355,1,4,1,1,2,55.000000
2023-08-31 16:50:42.240,,,,,,,,,,,,,,,,,,,,,,,,,,,,,,,,,,,,,,/muse/elements/blink
2023-08-31 16:50:42.240,,,,,,,,,,,,,,,,,,,,,,,,,,,,,,,,,,,,,,/muse/elements/jaw_clench
2023-08-31 16:50:42.609,,,,,,,,,,,,,,,,,,,,,,,,,,,,,,,,,,,,,,/muse/elements/jaw_clench
2023-08-31 16:50:42.838,,,,,,,,,,,,,,,,,,,,,,,,,,,,,,,,,,,,,,/muse/elements/blink
2023-08-31 16:50:42.943,1.401967505948654,1.181981030113994,0.3838559501352359,0.5189948548719512,1.386512129443834,0.4083322874042952,0.1143092688831088,0.5404706097725408,1.273507949423856,0.5373278176059186,0.2583699331296416,0.8747158429563624,0.885836777713374,0.6438509136017497,0.9693877549425729,1.260080544897228,0.6641389506500464,0.4558478747136971,0.3943982147808812,1.262190953423675,0,844.1391941391942,866.3003663003664,882.8205128205128,1273.663003663004,-0.635681,0.095032,0.774414,14.886322,-4.082336,-21.346283,1,4,1,1,2,55.000000
2023-08-31 16:50:43.022,,,,,,,,,,,,,,,,,,,,,,,,,,,,,,,,,,,,,,/muse/elements/jaw_clench
2023-08-31 16:50:43.458,,,,,,,,,,,,,,,,,,,,,,,,,,,,,,,,,,,,,,/muse/elements/blink
2023-08-31 16:50:43.931,1.401967505948654,1.181981030113994,0.3838559501352359,0.5189948548719512,1.386512129443834,0.4083322874042952,0.1143092688831088,0.5404706097725408,1.273507949423856,0.5373278176059186,0.2583699331296416,0.8747158429563624,0.885836777713374,0.6438509136017497,0.9693877549425729,1.260080544897228,0.6641389506500464,0.4558478747136971,0.3943982147808812,1.262190953423675,586.2637362637363,836.4835164835165,854.6153846153846,885.6410256410256,819.1575091575091,-0.678528,0.071533,0.684265,6.646881,5.592651,1.308441,1,4,1,1,2,55.000000
2023-08-31 16:50:44.931,1.401967505948654,1.181981030113994,0.3838559501352359,0.5189948548719512,1.386512129443834,0.4083322874042952,0.1143092688831088,0.5404706097725408,1.273507949423856,0.5373278176059186,0.2583699331296416,0.8747158429563624,0.885836777713374,0.6438509136017497,0.9693877549425729,1.260080544897228,0.6641389506500464,0.4558478747136971,0.3943982147808812,1.262190953423675,708.3516483516484,820.3663003663004,832.8571428571429,762.3443223443223,376.7399267399268,-0.749023,0.062073,0.658569,-1.226196,3.020630,8.575897,1,2,1,1,2,55.000000
2023-08-31 16:50:45.895,,,,,,,,,,,,,,,,,,,,,,,,,,,,,,,,,,,,,,/muse/elements/blink
2023-08-31 16:50:45.931,1.401967505948654,1.181981030113994,0.3838559501352359,0.5189948548719512,1.386512129443834,0.4083322874042952,0.1143092688831088,0.5404706097725408,1.273507949423856,0.5373278176059186,0.2583699331296416,0.8747158429563624,0.885836777713374,0.6438509136017497,0.9693877549425729,1.260080544897228,0.6641389506500464,0.4558478747136971,0.3943982147808812,1.262190953423675,687.3992673992674,791.3553113553114,790.952380952381,776.8498168498169,234.1025641025641,-0.731750,0.132507,0.653809,0.089722,-11.798401,-1.360779,1,2,1,1,2,55.000000
2023-08-31 16:50:46.265,,,,,,,,,,,,,,,,,,,,,,,,,,,,,,,,,,,,,,/muse/elements/blink
2023-08-31 16:50:46.932,1.401967505948654,1.181981030113994,0.9012840258761593,0.5189948548719512,1.386512129443834,0.4083322874042952,0.4594128874178453,0.5404706097725408,1.273507949423856,0.5373278176059186,0.4853740038187536,0.8747158429563624,0.885836777713374,0.6438509136017497,0.9379183220459859,1.260080544897228,0.6641389506500464,0.4558478747136971,0.7463972825703976,1.262190953423675,773.6263736263736,784.5054945054945,822.3809523809524,828.8278388278388,425.4945054945055,-0.705444,0.084290,0.696655,2.848663,-5.555267,-1.831818,1,2,1,1,2,55.000000
2023-08-31 16:50:47.382,,,,,,,,,,,,,,,,,,,,,,,,,,,,,,,,,,,,,,/muse/elements/jaw_clench
2023-08-31 16:50:47.718,,,,,,,,,,,,,,,,,,,,,,,,,,,,,,,,,,,,,,/muse/elements/blink
2023-08-31 16:50:47.931,1.401967505948654,1.181981030113994,0.9123484019193934,0.5189948548719512,1.386512129443834,0.4083322874042952,0.5790699954719878,0.5404706097725408,1.273507949423856,0.5373278176059186,0.8657736853602914,0.8747158429563624,0.885836777713374,0.6438509136017497,0.9619817242019832,1.260080544897228,0.6641389506500464,0.4558478747136971,0.6705797341613237,1.262190953423675,808.6813186813187,842.9304029304029,822.3809523809524,855.0183150183151,1232.161172161172,-0.725403,0.093079,0.703796,-10.280609,11.723633,10.086212,1,2,1,1,2,55.000000
2023-08-31 16:50:48.850,,,,,,,,,,,,,,,,,,,,,,,,,,,,,,,,,,,,,,/muse/elements/blink
2023-08-31 16:50:48.931,1.401967505948654,1.181981030113994,0.960185479718205,0.5189948548719512,1.386512129443834,0.4083322874042952,0.6903392350826552,0.5404706097725408,1.273507949423856,0.5373278176059186,0.8607290152779568,0.8747158429563624,0.885836777713374,0.6438509136017497,0.9691091058961633,1.260080544897228,0.6641389506500464,0.4558478747136971,0.6102267294257737,1.262190953423675,941.6483516483516,787.7289377289378,731.7216117216118,861.8681318681319,1395.347985347985,-0.675842,0.109375,0.728455,2.564545,-1.517792,-3.200073,1,2,1,1,2,55.000000
2023-08-31 16:50:49.931,1.401967505948654,1.291245311236882,0.960185479718205,0.5189948548719512,1.386512129443834,0.3654831737987675,0.6903392350826552,0.5404706097725408,1.273507949423856,0.5795444003584056,0.8607290152779568,0.8747158429563624,0.885836777713374,0.9742015926866298,0.9691091058961633,1.260080544897228,0.6641389506500464,0.6718242438273302,0.6102267294257737,1.262190953423675,914.2490842490843,802.6373626373627,792.967032967033,863.4798534798535,1133.040293040293,-0.698242,0.077087,0.691040,-1.727142,-1.988831,1.981354,1,2,1,1,2,60.000000
