TimeStamp,Delta_TP9,Delta_AF7,Delta_AF8,Delta_TP10,Theta_TP9,Theta_AF7,Theta_AF8,Theta_TP10,Alpha_TP9,Alpha_AF7,Alpha_AF8,Alpha_TP10,Beta_TP9,Beta_AF7,Beta_AF8,Beta_TP10,Gamma_TP9,Gamma_AF7,Gamma_AF8,Gamma_TP10,RAW_TP9,RAW_AF7,RAW_AF8,RAW_TP10,AUX_RIGHT,Accelerometer_X,Accelerometer_Y,Accelerometer_Z,Gyro_X,Gyro_Y,Gyro_Z,HeadBandOn,HSI_TP9,HSI_AF7,HSI_AF8,HSI_TP10,Battery,Elements
2023-09-08 13:48:13.401,,,,,,,,,,,,,,,,,,,,,,,,,,,,,,,,,,,,,,/muse/event/connected Muse-D424
2023-09-08 13:48:13.456,,,,,,,,,,,,,,,,,,,,,,,,,,,,,,,,,,,,,,/muse/elements/jaw_clench
2023-09-08 13:48:13.460,,,,,,,,,,,,,,,,,,,,,,,,,,,,,,,,,,,,,,/muse/elements/blink
2023-09-08 13:48:13.469,,,,,,,,,,,,,,,,,,,,,,,,,,,,,,,,,,,,,,/muse/elements/blink
2023-09-08 13:48:13.492,,,,,,,,,,,,,,,,,,,,,,,,,,,,,,,,,,,,,,/muse/elements/jaw_clench
2023-09-08 13:48:14.293,,,,,,,,,,,,,,,,,,,,,,,,,,,,,,,,,,,,,,/muse/elements/jaw_clench
2023-09-08 13:48:14.402,-0.01512820455308857,0.6009554702347826,0.1424763049663271,0.3628975982501583,0.1845815395214328,-0.04318961295047331,-0.5592975954021697,0.04871398765677989,-0.04358612995965741,-0.03612036795205113,0.2863695887492326,0.229292421135783,0.05192289725721949,0.2055515856940297,0.5890458443480212,0.04203808799142277,-0.07451637229692315,0.2914701487916221,0.1674146093215665,-0.007442158122614567,685.3846153846154,555.6410256410256,639.047619047619,664.8351648351648,667.2527472527473,-0.749939,0.117676,0.664978,4.172058,13.533020,-5.091705,1,2,1,4,2,100.000000
2023-09-08 13:48:14.445,,,,,,,,,,,,,,,,,,,,,,,,,,,,,,,,,,,,,,/muse/elements/blink
2023-09-08 13:48:15.409,-0.01512820455308857,0.6009554702347826,0.1424763049663271,0.3628975982501583,0.1845815395214328,-0.04318961295047331,-0.5592975954021697,0.04871398765677989,-0.04358612995965741,-0.03612036795205113,0.2863695887492326,0.229292421135783,0.05192289725721949,0.2055515856940297,0.5890458443480212,0.04203808799142277,-0.07451637229692315,0.2914701487916221,0.1674146093215665,-0.007442158122614567,853.0036630036631,845.7509157509157,817.1428571428571,846.5567765567765,812.7106227106227,-0.718872,0.053772,0.713013,1.973877,-20.007935,2.168274,1,2,1,1,2,100.000000
2023-09-08 13:48:16.270,,,,,,,,,,,,,,,,,,,,,,,,,,,,,,,,,,,,,,/muse/elements/blink
2023-09-08 13:48:16.412,-0.01512820455308857,0.6009554702347826,0.1424763049663271,0.3628975982501583,0.1845815395214328,-0.04318961295047331,-0.5592975954021697,0.04871398765677989,-0.04358612995965741,-0.03612036795205113,0.2863695887492326,0.229292421135783,0.05192289725721949,0.2055515856940297,0.5890458443480212,0.04203808799142277,-0.07451637229692315,0.2914701487916221,0.1674146093215665,-0.007442158122614567,825.2014652014652,778.8644688644689,821.5750915750916,801.4285714285714,738.974358974359,-0.119690,0.058655,0.981445,-1.899109,-15.155487,-6.616974,1,2,1,1,2,100.000000
2023-09-08 13:48:17.067,,,,,,,,,,,,,,,,,,,,,,,,,,,,,,,,,,,,,,/muse/elements/blink
2023-09-08 13:48:17.067,,,,,,,,,,,,,,,,,,,,,,,,,,,,,,,,,,,,,,/muse/elements/jaw_clench
2023-09-08 13:48:17.405,-0.01512820455308857,0.6009554702347826,0.1424763049663271,0.3628975982501583,0.1845815395214328,-0.04318961295047331,-0.5592975954021697,0.04871398765677989,-0.04358612995965741,-0.03612036795205113,0.2863695887492326,0.229292421135783,0.05192289725721949,0.2055515856940297,0.5890458443480212,0.04203808799142277,-0.07451637229692315,0.2914701487916221,0.1674146093215665,-0.007442158122614567,804.6520146520147,785.3113553113553,811.5018315018315,812.3076923076924,800.2197802197802,-0.566223,0.039307,0.813232,7.372131,10.729218,-4.097290,1,2,1,1,2,100.000000
2023-09-08 13:48:18.402,-0.01512820455308857,0.6009554702347826,0.1424763049663271,0.3628975982501583,0.1845815395214328,-0.04318961295047331,-0.5592975954021697,0.04871398765677989,-0.04358612995965741,-0.03612036795205113,0.2863695887492326,0.229292421135783,0.05192289725721949,0.2055515856940297,0.5890458443480212,0.04203808799142277,-0.07451637229692315,0.2914701487916221,0.1674146093215665,-0.007442158122614567,817.948717948718,793.3699633699634,803.8461538461539,821.978021978022,547.985347985348,-0.541565,0.045776,0.832336,-1.338348,-5.644989,4.852448,1,2,1,1,2,100.000000
2023-09-08 13:48:19.319,,,,,,,,,,,,,,,,,,,,,,,,,,,,,,,,,,,,,,/muse/elements/blink
2023-09-08 13:48:19.402,0.2802848960652899,-0.08019351516446176,0.3131731469255384,0.8169683755732485,0.4185894198249949,-0.0849492377189686,0.1702169940899965,0.6686207394000269,0.5467740139103757,0.4503298654988837,0.2701372158668753,1.01501900490339,0.614754788407019,1.242746990722122,1.164605223268187,0.6577866875642602,0.5345562490446852,1.014745549123883,1.20995209288299,0.4756282332942955,793.7728937728938,796.5934065934066,797.3992673992674,804.6520146520147,714.3956043956044,-0.336853,0.051208,0.930298,-2.280426,-0.119629,-6.302948,1,1,1,1,1,100.000000
2023-09-08 13:48:20.402,0.3723890020220157,-0.08019351516446176,0.3264309558168915,0.8736430498258408,0.6054237389658328,-0.0849492377189686,0.138445416790449,0.7525720398217585,0.5467740139103757,0.4503298654988837,0.5347214866913825,1.01501900490339,0.6309358797082993,1.242746990722122,0.8629466477327647,0.6704026839211108,0.3384609696708822,1.014745549123883,0.8576852671625259,0.4582313030794464,815.934065934066,810.2930402930403,809.0842490842491,822.7838827838829,836.4835164835165,-0.367615,0.004395,0.918457,1.614990,-2.878571,-1.143951,1,1,1,1,1,100.000000
2023-09-08 13:48:21.401,-0.1584362268685574,-0.2201033677404357,0.09424116968819829,-0.272299186546717,0.4409507905524573,0.05211406415420108,-0.06058709303791693,0.1952067340534274,0.6197497109093089,0.3251990167935592,0.5310209359859163,0.6344799784246691,0.4631613622796011,0.3847096236158277,0.6585791910221109,0.5845418757479506,-0.1123473885276304,0.5320018730745921,0.7935922083587638,0.08792301334446799,804.2490842490843,791.3553113553114,798.6080586080586,805.8608058608058,727.2893772893773,-0.390564,-0.029114,0.910889,5.884247,3.252411,1.914062,1,1,1,1,1,100.000000
2023-09-08 13:48:21.746,,,,,,,,,,,,,,,,,,,,,,,,,,,,,,,,,,,,,,/muse/elements/blink
2023-09-08 13:48:22.359,,,,,,,,,,,,,,,,,,,,,,,,,,,,,,,,,,,,,,/muse/elements/blink
2023-09-08 13:48:22.402,-0.1258597759422695,0.04457291437744671,0.005146768842752364,0.002376170494798469,0.4651134980191933,0.07391350114154602,-0.004232500867075505,0.2873256640989502,0.5153902966348753,0.341012089260455,0.3261734602364375,0.6739054688481622,0.423442568502456,0.3409807733464396,0.4579740863583099,0.5689940409221901,-0.08216386821454218,0.42426049737316,0.5521108874206889,-0.07135702405028034,823.5897435897436,790.1465201465202,808.2783882783883,836.8864468864469,707.5457875457876,-0.538391,-0.013000,0.798950,7.327271,-0.246735,-1.076660,1,1,1,1,1,100.000000
2023-09-08 13:48:22.448,,,,,,,,,,,,,,,,,,,,,,,,,,,,,,,,,,,,,,/muse/elements/jaw_clench
2023-09-08 13:48:23.061,,,,,,,,,,,,,,,,,,,,,,,,,,,,,,,,,,,,,,/muse/elements/blink
2023-09-08 13:48:23.402,0.01204509314659587,0.2642796651044664,0.07901909135100371,0.1683884020821307,0.3235539795016116,-0.03769229825844854,-0.02957801353795606,0.3401357446647523,0.2839797223266226,0.2633978445137679,0.1114838289695333,0.6056935913829024,0.3931605770293569,0.3708640350020309,0.3522549693460139,0.5427882348702592,-0.01317170087885687,0.2665056563538763,0.3538602451341837,-0.1034472624598741,794.981684981685,794.1758241758242,796.5934065934066,791.3553113553114,648.7179487179487,0.009277,0.102661,0.989502,2.721558,-6.901093,-2.407532,1,1,1,1,1,100.000000
2023-09-08 13:48:23.848,,,,,,,,,,,,,,,,,,,,,,,,,,,,,,,,,,,,,,/muse/elements/blink
2023-09-08 13:48:24.402,0.01204509314659587,0.2642796651044664,0.07901909135100371,0.1683884020821307,0.3235539795016116,-0.03769229825844854,-0.02957801353795606,0.3401357446647523,0.2839797223266226,0.2633978445137679,0.1114838289695333,0.6056935913829024,0.3931605770293569,0.3708640350020309,0.3522549693460139,0.5427882348702592,-0.01317170087885687,0.2665056563538763,0.3538602451341837,-0.1034472624598741,798.2051282051282,802.6373626373627,813.1135531135532,807.8754578754579,802.2344322344322,-0.467407,-0.055420,0.868774,6.721649,-0.149536,3.304749,1,2,1,1,2,100.000000
2023-09-08 13:48:25.402,0.7869209720232277,-0.1547204591456109,0.07901909135100371,0.1683884020821307,0.5651330880090398,-0.05312314875234198,-0.02957801353795606,0.3401357446647523,0.5462780050840005,0.2949285129214705,0.1114838289695333,0.6056935913829024,0.4357049108437025,0.5637285583621989,0.3522549693460139,0.5427882348702592,-0.1876333677418065,0.4485849799655364,0.3538602451341837,-0.1034472624598741,802.6373626373627,806.6666666666667,810.6959706959707,820.7692307692308,664.8351648351648,-0.524109,-0.010803,0.843567,7.222595,-5.869293,-6.422577,1,2,1,1,2,100.000000
2023-09-08 13:48:26.402,1.084521005928566,0.8092467236997918,0.6306891032771788,0.7601256878290712,0.7523810334496674,0.5225738093814657,0.2799058733130877,0.6347838966395194,0.6378377410041305,0.6977326399430775,0.3476970134765197,0.7214357845983265,0.3434915671641003,0.4349088746791335,0.660907191668313,0.7943637128523713,0.002928853051497778,0.3061251069807618,0.5337294535196275,0.741584448895848,784.1025641025641,627.7655677655678,585.8608058608058,786.9230769230769,710.7692307692308,-0.501953,-0.013550,0.870361,14.729309,60.068665,-29.398804,1,1,1,1,1,100.000000
2023-09-08 13:48:26.471,,,,,,,,,,,,,,,,,,,,,,,,,,,,,,,,,,,,,,/muse/elements/blink
2023-09-08 13:48:26.471,,,,,,,,,,,,,,,,,,,,,,,,,,,,,,,,,,,,,,/muse/elements/jaw_clench
2023-09-08 13:48:26.714,,,,,,,,,,,,,,,,,,,,,,,,,,,,,,,,,,,,,,/muse/elements/blink
2023-09-08 13:48:27.329,,,,,,,,,,,,,,,,,,,,,,,,,,,,,,,,,,,,,,/muse/elements/blink
2023-09-08 13:48:27.401,1.313090556555725,1.190391205734619,0.9854218038265162,0.7748405788762408,0.9548721503127835,0.8896726470785665,0.552393084756152,0.7085979174473821,0.588130247434981,0.6318157778522572,0.330804515461068,0.4033941038784269,0.2054632314830647,0.2856908149160848,0.384780954018915,0.4647907255739817,0.174894956637529,0.04040180968184875,0.3173183582126701,0.5807862405030313,822.7838827838829,832.8571428571429,782.4908424908425,838.901098901099,768.7912087912088,-0.776245,-0.008545,0.607300,14.475098,-0.104675,-11.073151,1,1,1,4,1,100.000000
2023-09-08 13:48:28.312,,,,,,,,,,,,,,,,,,,,,,,,,,,,,,,,,,,,,,/muse/elements/blink
2023-09-08 13:48:28.401,1.313090556555725,1.241260124992419,0.9854218038265162,0.7748405788762408,0.9548721503127835,0.9212542591882309,0.552393084756152,0.7085979174473821,0.588130247434981,0.6057406075649956,0.330804515461068,0.4033941038784269,0.2054632314830647,0.2746323773747352,0.384780954018915,0.4647907255739817,0.174894956637529,0.003282667053131583,0.3173183582126701,0.5807862405030313,838.901098901099,844.1391941391942,815.5311355311355,817.948717948718,738.5714285714286,-0.848938,0.002930,0.553467,-30.056763,4.844971,34.415741,1,1,1,4,1,100.000000
2023-09-08 13:48:28.443,,,,,,,,,,,,,,,,,,,,,,,,,,,,,,,,,,,,,,/muse/elements/jaw_clench
2023-09-08 13:48:29.406,1.313090556555725,1.241260124992419,0.9854218038265162,0.7748405788762408,0.9548721503127835,0.9212542591882309,0.552393084756152,0.7085979174473821,0.588130247434981,0.6057406075649956,0.330804515461068,0.4033941038784269,0.2054632314830647,0.2746323773747352,0.384780954018915,0.4647907255739817,0.174894956637529,0.003282667053131583,0.3173183582126701,0.5807862405030313,788.5347985347986,806.2637362637363,816.7399267399268,795.3846153846154,623.7362637362637,-0.551331,0.347839,0.761719,9.002075,-15.462036,-23.664093,1,2,1,1,2,100.000000
2023-09-08 13:48:30.401,1.33394407018242,0.4144619384428375,0.1522129625195833,1.14618599974653,1.044538530095739,0.05883048427173859,0.1300523994001309,0.9329709795818494,1.030143715532117,0.1947718022984671,0.4968776410174527,0.6972808283135574,0.5142236686551502,0.5933223672616712,0.7907512421549255,0.638110774876692,0.2981310551109247,0.3798775947677693,0.6831253772078573,0.1518581504709756,827.6190476190476,792.1611721611722,801.4285714285714,840.5128205128206,774.0293040293041,-0.547058,0.122742,0.793762,-4.493561,-7.013245,-1.727142,1,1,1,1,1,100.000000
2023-09-08 13:48:30.463,,,,,,,,,,,,,,,,,,,,,,,,,,,,,,,,,,,,,,/muse/elements/blink
2023-09-08 13:48:31.402,1.33394407018242,0.3837663926743791,0.2922213816522273,1.181557540682414,1.044538530095739,-0.09902601101627084,0.1329792209672146,0.9603297309818597,1.030143715532117,0.2074209063028007,0.52712251945691,0.6940274025603486,0.5142236686551502,0.342139085279606,0.6436887811006712,0.591165707931783,0.2981310551109247,0.1672156394347233,0.5032516487694204,0.06460922719001781,808.2783882783883,786.1172161172161,782.893772893773,822.3809523809524,714.7985347985348,-0.570801,0.094238,0.788879,1.039276,-1.360779,-0.171967,1,1,1,1,1,100.000000
2023-09-08 13:48:32.402,0.4743699050569471,-0.05319372779766862,0.2424299245603502,0.6049337462096189,0.2749285123359407,-0.2222186162338946,-0.1454983204384891,0.5029126784119436,0.623541793028756,0.2224455074421406,0.38700627980103,0.6075868606617106,0.3852322234751353,0.3455246720329139,0.6789276657880475,0.5605531359037339,-0.1310915313899883,0.004467166027108469,0.5108364676507463,0.1570720436876638,791.3553113553114,793.7728937728938,786.9230769230769,791.7582417582418,664.0293040293041,-0.585693,0.071350,0.796753,1.562653,-5.345917,-0.829926,1,1,1,1,1,100.000000
2023-09-08 13:48:33.309,,,,,,,,,,,,,,,,,,,,,,,,,,,,,,,,,,,,,,/muse/elements/blink
2023-09-08 13:48:33.405,0.2720661525407455,0.03972779169599419,0.03465148809088616,0.4182852260236087,0.3444137839139059,-0.1343777190511692,-0.08924107428941777,0.4303203576801583,0.6497083771154395,0.4447411202737702,0.3770694176772103,0.6540252241263347,0.2489627507466849,0.4412836918613185,0.7136435457466334,0.5329590773739905,-0.1813684140737469,0.2006171007553295,0.5479280886910318,0.1399698554126518,788.5347985347986,788.1318681318681,800.2197802197802,815.1282051282052,846.5567765567765,-0.351074,0.096619,0.923279,3.327179,-4.732819,-6.878662,1,1,1,1,1,100.000000
2023-09-08 13:48:34.402,0.004159595572876989,0.9588218558850192,0.6881202550898435,0.3276234822659426,0.3514094286424965,0.6783564453986702,0.4004051094011517,0.4028970144632942,0.4348433509676283,0.5804816302014935,0.4136818179541877,0.522299848704027,0.1448953251324766,0.3028296678711931,0.5597317486216402,0.5893638166341667,-0.1321271532519426,0.1682564849517442,0.2929886681207109,0.09535746558882925,805.0549450549451,802.6373626373627,805.4578754578755,818.7545787545788,761.1355311355312,-0.429199,0.062439,0.888306,5.630035,-2.272949,-3.932800,1,1,1,1,1,100.000000
2023-09-08 13:48:35.408,0.110017128453948,0.5212028269354149,0.37377746872974,0.938410063286055,0.3080785070797198,0.2845369161249144,0.2192899382059454,0.7112989112421265,0.4780510327926223,0.2933049439902862,0.3482754994680618,0.5765269997856259,0.170078000063158,0.06481631478155546,0.4084876797716877,0.409730637149028,-0.1563827180744878,-0.03768881826974535,0.1236323197392575,0.06252090627253201,837.2893772893773,784.9084249084249,784.1025641025641,839.3040293040293,680.5494505494506,-0.431641,0.036865,0.879517,2.452393,2.736511,2.572021,1,1,1,1,1,100.000000
2023-09-08 13:48:35.529,,,,,,,,,,,,,,,,,,,,,,,,,,,,,,,,,,,,,,/muse/elements/blink
2023-09-08 13:48:36.401,0.1334044193647345,0.1918852431100053,-0.07925582348308562,0.4692308031475895,0.309391888646769,-0.05674367536531212,-0.0633306533625939,0.4085855065880616,0.435025888569892,0.007376386576393629,0.2839040167183963,0.5498536504890283,0.0378667215021575,-0.03772529953844845,0.332036570228792,0.3107325230539529,-0.2327808827767305,-0.05933321460732279,0.03541985218955786,0.02825315240625802,798.6080586080586,797.3992673992674,799.8168498168499,811.5018315018315,816.7399267399268,-0.447021,0.046387,0.866516,2.586975,5.772095,9.884338,1,1,1,1,1,100.000000
2023-09-08 13:48:37.401,0.4121252058016582,0.6162714693818987,0.2470871669241621,0.2451922545746311,0.3537980550273493,0.2927177972505182,0.1040113485572359,0.4459744178633024,0.5933209422674568,0.1917524294403325,0.2710666454371272,0.7231726471194632,0.384361956386882,0.006206036112552883,0.357495702645149,0.2713481231331365,-0.06667265906232474,-0.2870515424675726,0.2295323237892198,-0.02431808331019136,792.1611721611722,783.2967032967033,798.6080586080586,782.0879120879121,770,-0.560425,0.093628,0.813477,8.179626,-3.745880,-5.929108,1,1,1,1,1,100.000000
2023-09-08 13:48:37.675,,,,,,,,,,,,,,,,,,,,,,,,,,,,,,,,,,,,,,/muse/elements/blink
2023-09-08 13:48:38.409,0.4857039730433667,0.7633323530174215,0.4314299374068837,0.2278742230036603,0.3730434655939307,0.4310909419083512,0.4585276031459632,0.4913800609040841,0.5933209422674568,0.3028723536535668,0.2245085495043975,0.7431061804883401,0.3647957051746624,0.1323628903737958,0.3210074242824436,0.298323174865508,-0.07683273105613848,-0.2214463693875724,0.3545863833856712,-0.02414941013946146,812.3076923076924,797.3992673992674,800.2197802197802,802.2344322344322,740.5860805860806,-0.593872,0.102478,0.797058,8.134766,-0.007477,-13.495636,1,1,1,1,1,100.000000
2023-09-08 13:48:39.400,0.1739705759166178,0.1486529659988396,-0.3120151167869624,0.2934570667292936,0.3436788667474332,-0.1185885574711241,0.2744380301924312,0.2131070867659407,0.5573290733057323,0.5659031210712724,0.2226972492853772,0.5495203472609214,0.2953368406107072,0.3325444850586661,0.2121010796759405,0.5626289491677361,-0.2072625793683133,0.03645111948320528,0.1734204306753901,0.2971458624720725,797.8021978021978,792.1611721611722,802.2344322344322,810.2930402930403,793.3699633699634,-0.507935,0.003296,0.846680,2.317810,-0.822449,6.011353,1,1,1,1,1,100.000000
2023-09-08 13:48:40.220,,,,,,,,,,,,,,,,,,,,,,,,,,,,,,,,,,,,,,/muse/elements/jaw_clench
2023-09-08 13:48:40.397,,,,,,,,,,,,,,,,,,,,,,,,,,,,,,,,,,,,,,/muse/elements/blink
2023-09-08 13:48:40.407,0.4328576880887041,0.3732593113661294,-0.3093025883339318,0.4778631486906732,0.2627686948759612,0.06301708442997174,-0.142960464811127,0.3458915357847931,0.5994769226834559,0.5726048462598756,0.1904823826416769,0.5817977203374995,0.2195417878134634,0.194262486796439,0.2800140327906945,0.5435225448784073,-0.2266823569002306,-0.07746912855930224,0.1092221062582898,0.2696896002685071,736.1538461538462,861.0622710622711,732.1245421245421,744.6153846153846,646.3003663003664,-0.788513,0.011353,0.614197,1.914062,1.966400,-0.710297,1,1,1,1,1,100.000000
2023-09-08 13:48:40.638,,,,,,,,,,,,,,,,,,,,,,,,,,,,,,,,,,,,,,/muse/elements/blink
2023-09-08 13:48:41.401,0.4363321875081344,0.3685482170554846,-0.1587583810921359,0.4973110283033202,0.1295972928252169,0.01404864440050963,-0.1360513081227158,0.3923809249040021,0.06104656117063835,-0.1076942663222666,-0.02540669476059916,0.3133080517984695,0.07931637906538559,-0.182102222689919,0.3608401419395327,0.5466498581111707,-0.3003812556601027,-0.1739522257422192,0.02767478071011124,0.1090104467397356,824.7985347985348,830.8424908424909,819.5604395604396,828.021978021978,850.1831501831502,-0.776672,0.044617,0.606323,1.495361,-4.216919,0.508423,1,1,1,1,1,100.000000
2023-09-08 13:48:41.535,,,,,,,,,,,,,,,,,,,,,,,,,,,,,,,,,,,,,,/muse/elements/jaw_clench
2023-09-08 13:48:42.401,0.4363321875081344,0.3685482170554846,-0.1587583810921359,0.4973110283033202,0.1295972928252169,0.01404864440050963,-0.1360513081227158,0.3923809249040021,0.06104656117063835,-0.1076942663222666,-0.02540669476059916,0.3133080517984695,0.07931637906538559,-0.182102222689919,0.3608401419395327,0.5466498581111707,-0.3003812556601027,-0.1739522257422192,0.02767478071011124,0.1090104467397356,805.8608058608058,811.5018315018315,811.9047619047619,831.2454212454213,814.7252747252747,-0.298401,0.068359,0.942200,0.904694,6.878662,7.611389,1,1,1,1,1,100.000000
2023-09-08 13:48:43.401,1.045881243946622,0.6354715827515456,0.2367800393354576,0.7878902709793975,0.9694082449099024,0.4634479583288355,-0.08465580751274744,0.79424810360246,0.9288299902884941,0.6742763936359425,0.4944851931875185,1.045429168420343,0.5291877120135526,0.7296351009898788,0.8954920305766656,0.7175910778945646,0.2133977663513051,1.063470351353894,1.044844278556164,0.5278106997267912,808.6813186813187,799.8168498168499,811.9047619047619,825.2014652014652,760.3296703296703,-0.384460,0.097290,0.910828,5.495453,-5.308533,-2.878571,1,1,1,1,1,100.000000
2023-09-08 13:48:43.949,,,,,,,,,,,,,,,,,,,,,,,,,,,,,,,,,,,,,,/muse/elements/blink
2023-09-08 13:48:44.401,0.970564400522461,0.5708959295536988,0.5414380903603878,0.764813892766126,1.043516815222826,0.4318251454759472,0.1023241422685168,0.9560310754614609,0.837119559485162,0.6574306042870144,0.613065784330256,1.015720556072354,0.3365566617748223,0.6772397506159846,0.7370165501730249,0.6689227269503839,0.01503630607275184,0.6090952647957169,0.8146882037926262,0.2132321214589822,799.8168498168499,782.893772893773,807.4725274725275,815.1282051282052,795.7875457875458,-0.443970,0.060913,0.888123,2.250519,2.975769,5.158997,1,1,1,1,1,100.000000
2023-09-08 13:48:45.401,0.8793169074437336,0.4854059952968809,0.1727335902087877,0.6103658491490249,0.6660277858612016,0.295103779159641,-0.009940433501109083,0.3398402443643905,0.4826826529419982,0.537526568291666,0.550046963619334,0.5188241944910145,0.4248679228885538,0.6032409198262685,0.6724802469895563,0.5580801942621378,-0.1662687832274354,0.4451497940532359,0.4880947489894404,0.1564607227496443,811.9047619047619,789.3406593406594,792.5641025641025,824.7985347985348,799.0109890109891,-0.534363,0.077515,0.846008,0.882263,-1.114044,-0.867310,1,1,1,1,1,100.000000
2023-09-08 13:48:46.404,0.5576066955497775,0.326610457846048,0.4918242249458857,0.4264708097484405,0.4096829238509085,0.1399810066933815,0.2726158892821484,0.3061083643607264,0.5032346966139423,0.3726707629933351,0.6535390389997977,0.6422642565767789,0.1812946930335481,0.3393623067511851,0.4416033068408116,0.5123065564697582,-0.1050711910274087,0.03598589887531091,0.2523817032240858,0.1073611527703916,812.7106227106227,799.8168498168499,801.025641025641,817.5457875457876,756.7032967032967,-0.501892,0.086060,0.842224,1.614990,-7.416992,0.104675,1,1,1,1,1,100.000000
2023-09-08 13:48:47.113,,,,,,,,,,,,,,,,,,,,,,,,,,,,,,,,,,,,,,/muse/elements/blink
2023-09-08 13:48:47.401,0.2401210207313959,0.5291038240355377,0.7267489590376897,0.3621449269265534,0.1811815744858191,-0.02078516809972877,0.3792860419050129,0.2635827137096134,0.3522806080763075,0.4159108896871599,0.6567037010913236,0.4633280226506532,0.01412249550078306,0.1674591282177621,0.35211085281361,0.4047800406504071,-0.1813604917835605,-0.0135973264800099,0.1149465520447843,0.08152361240755789,796.996336996337,801.8315018315019,801.4285714285714,812.7106227106227,744.6153846153846,-0.497070,0.067871,0.856628,2.235565,-3.491669,0.127106,1,1,1,1,1,100.000000
2023-09-08 13:48:48.401,0.270798741044939,0.5556768093221245,0.4092782509044731,0.5213555438181118,0.2771763136391454,0.1092844130571694,-0.0003511105062124245,0.2502750026147127,0.2139022903968748,0.3265479894811958,0.3357734919791882,0.02297810573413983,0.09058268245052667,0.01464011983093237,0.2368759082106407,0.361974758403263,-0.2294861437985554,-0.05109941969261529,-0.08825596612759949,0.1515650065647074,804.2490842490843,791.3553113553114,801.025641025641,813.919413919414,864.2857142857143,-0.402466,-0.029114,0.901306,-6.295471,1.772003,-8.224487,1,1,1,1,1,100.000000
2023-09-08 13:48:49.401,0.2248713897724523,0.110402182874765,0.1427786716763371,0.3518674871496465,0.5502026770532741,0.1680705043779357,-0.03887608504563834,0.296691913102376,0.3822714214056184,0.2155579081604855,0.2381184191781077,0.6085603533518177,0.1694410155778729,0.02276895968741653,0.1653091584064672,0.3467235960223546,-0.05710685664942887,-0.2664923746548371,-0.3493721702127188,0.2339003738859621,796.5934065934066,801.4285714285714,799.4139194139194,822.7838827838829,857.8388278388279,-0.397339,-0.079651,0.901367,4.037476,-6.168365,2.527161,1,1,1,1,1,100.000000
2023-09-08 13:48:50.383,,,,,,,,,,,,,,,,,,,,,,,,,,,,,,,,,,,,,,/muse/elements/blink
2023-09-08 13:48:50.400,0.3263729084643989,0.09967530341206247,0.2988712570888598,0.4048567125802137,0.456080419911612,0.1446607319100654,0.1843067686011243,0.3182466232589977,0.7063139997317134,0.3693470811109193,0.2745772574279204,0.7055917833583838,0.3137899835121201,0.1113237006119332,0.04528354474157327,0.4935692992186366,-0.09430633624874564,-0.2155590428339781,-0.05504146283575434,0.2597334924827727,810.6959706959707,806.2637362637363,792.5641025641025,819.1575091575091,807.4725274725275,-0.492981,0.070984,0.850403,8.351593,-2.459869,-11.716156,1,1,1,1,1,100.000000
2023-09-08 13:48:51.400,0.5837843113305278,0.80683450071813,0.8443700710808809,0.5903467812711387,0.795955378601948,0.4309599531361252,0.6287484759701226,0.5607176648540445,0.6977014366210972,0.417338095356118,0.6087991415532265,0.4971645346716587,0.4097995707542547,-0.005697617096013157,0.2733651614363554,0.6054193514993147,-0.199992166347084,-0.2681379302292125,0.1645774494563647,0.3007011675295104,806.2637362637363,790.952380952381,800.2197802197802,832.0512820512821,760.7326007326008,-0.506104,0.066772,0.850037,-0.299072,-0.224304,-3.484192,1,1,1,1,1,100.000000
2023-09-08 13:48:52.401,0.5005727824949693,0.8093932342220947,0.7211494695087405,0.6679150289708221,0.2164122663904382,0.3728120263812704,0.4570214096298075,0.5239877156247722,0.5212622033483116,0.3877828666745625,0.6156454979936101,0.5759702185878748,0.2441301976456719,0.0898532530786407,0.2058822121189413,0.4786865907235038,-0.09183416765220366,-0.3747372351510564,-0.001054992012205437,-0.03107759192846508,759.1208791208792,791.3553113553114,776.0439560439561,769.1941391941392,832.4542124542124,-0.497742,0.060791,0.821472,7.147827,11.671295,-9.151611,1,1,1,1,1,100.000000
2023-09-08 13:48:52.585,,,,,,,,,,,,,,,,,,,,,,,,,,,,,,,,,,,,,,/muse/elements/blink
2023-09-08 13:48:53.001,,,,,,,,,,,,,,,,,,,,,,,,,,,,,,,,,,,,,,/muse/elements/blink
2023-09-08 13:48:53.001,,,,,,,,,,,,,,,,,,,,,,,,,,,,,,,,,,,,,,/muse/elements/jaw_clench
2023-09-08 13:48:53.401,1.247583562831357,0.1823718697724153,0.2245767355146462,0.671796673137757,0.9777630250046366,0.2404762987912159,-0.02769194887070716,0.5315715498869439,1.320093404985689,0.4167666077972041,-0.1109798888598949,0.5545468143040059,0.315041310603253,0.2593932347268317,0.2521999406430912,0.4922342001020518,-0.1624530733604361,-0.1969900536231781,-0.01148248768133916,-0.05773017038105051,782.0879120879121,772.8205128205128,770,821.1721611721612,863.0769230769231,-0.804443,0.015503,0.604797,6.796417,0.209351,-6.916046,1,1,1,1,1,100.000000
2023-09-08 13:48:54.401,1.352656331854413,0.3328571074317527,0.293364629025774,0.6316916677360807,1.075591460423889,0.4439505793108757,-0.111406692119689,0.5994778700876406,1.318729655146311,0.3954485123225436,-0.2466451722838003,0.5594061368150609,0.5889074132720805,0.4107821049486857,0.2650299462441731,0.8707891735068903,0.2230518890589508,-0.0379110965653305,0.06122332474675676,0.510790909549624,801.4285714285714,782.893772893773,790.1465201465202,828.4249084249085,826.007326007326,-0.778259,0.049622,0.597290,10.033875,-5.547791,0.246735,1,1,1,1,1,100.000000
2023-09-08 13:48:55.402,0.3023642851852767,0.1310201803025498,0.3394369503093836,0.4945559122889454,0.00734818573081441,0.1484036044737397,-0.1351140561963108,0.341946997266498,0.5061181981271816,0.6405069088544494,0.1916250265032531,0.7214737349468622,0.4778198860258441,0.8791635469473533,0.8829854880262131,0.6969733281629998,0.3680230381414662,0.8125079357335232,0.7345077953808703,0.4679294553796264,803.040293040293,812.7106227106227,791.3553113553114,808.2783882783883,725.2747252747253,-0.743103,0.036133,0.660339,2.377625,-5.144043,-4.022522,1,1,1,1,1,100.000000
2023-09-08 13:48:56.406,0.3049172164935817,0.008661181241248794,0.2471734253016736,0.412408856492364,0.1527795829539647,0.03312518457739927,-0.1359561312457823,0.339927030953834,0.5275670787903413,0.3319604223609039,0.2995202459878425,0.6001188696442527,0.416020189840955,0.6488381593520866,0.6583540266760841,0.5111518489826772,0.2487125156862626,0.7584778316161565,0.6258131061928285,0.3347607130263171,780.0732600732601,767.1794871794872,786.1172161172161,809.4871794871796,913.4432234432235,-0.247437,0.023499,0.959167,2.362671,1.637421,2.362671,1,1,1,1,1,100.000000
2023-09-08 13:48:57.094,,,,,,,,,,,,,,,,,,,,,,,,,,,,,,,,,,,,,,/muse/elements/blink
2023-09-08 13:48:57.412,0.7481160672601151,0.3325333147235787,0.198016908730398,0.6978742908299129,0.4493997879529141,0.07000772751610063,-0.1800414400203628,0.5047316081322799,0.8005410360490741,0.3381850570254149,0.3248034569047775,0.9107079879126172,0.6016223925937888,0.7543118496037916,0.7219079168908316,0.7097507366667813,0.3033811467776548,0.6076667086805104,0.6635372109198442,0.4743604180021295,808.2783882783883,799.8168498168499,799.0109890109891,817.948717948718,784.5054945054945,-0.595581,0.024963,0.818054,1.659851,15.716248,-14.856415,1,1,1,1,1,100.000000
2023-09-08 13:48:58.401,0.968879800799118,0.07424003779100991,0.4093309513612118,1.154872478243991,0.5826117120695709,0.2469792606036185,-0.2074207662580135,1.333320609732789,0.7870966565224264,0.2944952772543188,0.2918516556582927,1.286773701581084,0.7821588168345526,0.3589086145686822,0.5824240453204681,0.6309122788660956,0.3699817185321865,0.06883345829227697,0.581218127075724,0.2667860153922161,788.9377289377289,790.1465201465202,768.7912087912088,807.0695970695971,776.4468864468864,-0.450378,-0.095093,0.886963,0.239258,0.687866,9.383392,1,1,1,1,1,100.000000
2023-09-08 13:48:59.401,0.7890750956126401,0.4639300362860473,0.3767669154523637,0.6226271543192764,0.9446659048831332,0.4198858877469882,-0.107718560205032,0.6917486241098455,1.014359217704546,0.4315577473688536,0.5767130634840015,0.8971937934542973,0.4562198631460086,0.331117476855444,0.4244034605807787,0.5624708739744357,-0.0875708040045467,0.2669220142079974,0.3694428043148626,0.293288616680048,796.5934065934066,778.8644688644689,794.981684981685,805.4578754578755,833.2600732600733,-0.502747,-0.063110,0.873657,-0.889740,2.100983,4.082336,1,1,1,1,1,100.000000
2023-09-08 13:49:00.401,0.7165120956059462,0.4987952594609168,0.3693995538658702,0.2369733029902425,0.7234281882206408,0.4419545743580313,0.07079374903771714,0.5472688428300029,0.9700922304066267,0.331133435852352,0.6669742059763588,0.8710062748882911,0.4311506587566765,0.2124547119283404,0.3882351436749887,0.4783752412734445,-0.134354557080756,0.2719967478615757,0.2599703813681003,0.2889797526028095,792.967032967033,803.8461538461539,794.1758241758242,809.4871794871796,792.967032967033,-0.510803,-0.048157,0.828247,1.248627,-3.364563,1.502838,1,1,1,1,1,100.000000
2023-09-08 13:49:00.603,,,,,,,,,,,,,,,,,,,,,,,,,,,,,,,,,,,,,,/muse/elements/blink
2023-09-08 13:49:01.344,,,,,,,,,,,,,,,,,,,,,,,,,,,,,,,,,,,,,,/muse/elements/blink
2023-09-08 13:49:01.401,0.5935839181045094,0.08084387777872426,0.3573705058375597,0.1066342712562932,0.1601492240609695,-0.01455893031189348,0.1114450488476421,0.4410169995975107,0.3658603457559085,0.3487074236803696,0.3058711206411003,0.3525099207157927,0.2234525600073651,0.3390842762992473,0.3838191119138681,0.3603455393588478,-0.3533168052314813,-0.0061781284645037,0.3113885209938718,0.3006410253590915,797.8021978021978,813.919413919414,799.0109890109891,812.3076923076924,844.9450549450549,-0.773560,0.057983,0.645691,-4.628143,11.476898,12.680664,1,1,1,1,1,100.000000
2023-09-08 13:49:02.330,,,,,,,,,,,,,,,,,,,,,,,,,,,,,,,,,,,,,,/muse/elements/jaw_clench
2023-09-08 13:49:02.400,0.61094835034969,0.6742016785256012,0.6160277565547491,-0.05847291597521025,0.05009362793923818,0.2367115004762577,0.1410204355400598,0.374212121728798,0.2972134987382267,0.5701332562715802,0.27789053427356,0.3525099207157927,0.2116628749528802,0.4944028865041069,0.6488411440576286,0.3466410299039817,-0.3584115603601941,0.1043145574682314,0.3772830388093231,0.249499417961436,291.3186813186813,498.021978021978,656.3736263736264,300.989010989011,844.5421245421246,-0.589478,0.180786,0.780640,51.687164,-21.107025,-88.233795,1,1,1,1,1,100.000000
2023-09-08 13:49:02.570,,,,,,,,,,,,,,,,,,,,,,,,,,,,,,,,,,,,,,/muse/elements/blink
2023-09-08 13:49:03.409,0.61094835034969,0.7930291648243266,0.5955985972376643,-0.05847291597521025,0.05009362793923818,0.3170130824412785,0.09895188722928895,0.374212121728798,0.2972134987382267,0.3302647249542914,0.1427303235539601,0.3525099207157927,0.2116628749528802,0.394013809566879,0.5451854196121161,0.3466410299039817,-0.3584115603601941,0.1952789921825721,0.493465931452589,0.249499417961436,861.8681318681319,784.1025641025641,821.1721611721612,888.8644688644689,797.3992673992674,-0.621582,0.105530,0.719177,-36.905518,-13.824615,60.913544,1,2,1,1,2,100.000000
2023-09-08 13:49:03.463,,,,,,,,,,,,,,,,,,,,,,,,,,,,,,,,,,,,,,/muse/elements/blink
2023-09-08 13:49:04.402,0.61094835034969,0.7930291648243266,0.5955985972376643,-0.05847291597521025,0.05009362793923818,0.3170130824412785,0.09895188722928895,0.374212121728798,0.2972134987382267,0.3302647249542914,0.1427303235539601,0.3525099207157927,0.2116628749528802,0.394013809566879,0.5451854196121161,0.3466410299039817,-0.3584115603601941,0.1952789921825721,0.493465931452589,0.249499417961436,809.0842490842491,810.2930402930403,807.4725274725275,835.2747252747253,873.5531135531136,-0.281860,0.112061,0.940674,7.551575,-5.884247,-18.176117,1,2,1,1,2,100.000000
2023-09-08 13:49:05.400,0.5900067116301417,0.5238323699847913,1.002903039516823,1.041522418554204,0.7303874718115058,0.2270009024333985,0.5986718179641058,1.187103016495762,0.5652980247884553,0.5611339441572684,0.4480630716656618,1.123586541126198,0.6282008325678732,0.57994376728882,0.4163501454228146,0.6305908826052661,0.129703939481352,0.3686597558910786,0.3729333097030792,-0.04813640401265144,807.8754578754579,779.6703296703297,795.3846153846154,830.4395604395604,892.0879120879121,-0.292664,0.101135,0.926575,-0.224304,-4.613190,-1.801910,1,1,1,1,1,100.000000
2023-09-08 13:49:06.401,0.3811570904955491,0.5742206043927719,0.7758121731143678,0.7148581011697451,0.7260876048162314,0.4217760523071769,0.3674341027443316,0.9123222428793945,0.8578409520556883,0.6329911932273082,0.5407391592582809,1.123586541126198,0.4763321061446759,0.480706899779639,0.4220461300449909,0.6779103602054795,-0.02619407210610485,0.2534998962669974,0.4109371603984423,-0.02203515708929327,794.981684981685,791.7582417582418,799.0109890109891,815.1282051282052,837.6923076923077,-0.504456,0.146240,0.831238,6.340332,6.639404,-15.843353,1,1,1,1,1,100.000000
2023-09-08 13:49:06.604,,,,,,,,,,,,,,,,,,,,,,,,,,,,,,,,,,,,,,/muse/elements/blink
2023-09-08 13:49:07.401,0.5120278294775537,0.7931709028411893,0.2263047280075808,0.05046151711372115,0.8488785163932496,0.7559284692135299,0.1244877853568037,0.4857003417688436,0.8515263599717482,0.528742611354232,0.446042290844566,0.3389184430239684,0.4021687852634965,0.4543383188243429,0.5645215775656193,0.6531186355290394,-0.06743811233450471,0.1015789295127254,0.6159510283392295,0.01717675600307174,807.8754578754579,796.5934065934066,795.3846153846154,818.3516483516484,860.6593406593407,-0.640381,0.090332,0.757812,5.039368,-6.056213,-0.844879,1,1,1,1,1,100.000000
2023-09-08 13:49:08.404,0.8673814518898731,0.3924101228357387,0.1168002086376919,0.05046151711372115,1.021074187912847,0.3175435980430524,-0.1301638318359802,0.4857003417688436,0.7989952633800232,0.3547506354684022,0.2819011635447557,0.3389184430239684,0.4717113483330271,0.3384998597315436,0.3910958711295658,0.6531186355290394,-0.2255374807645802,0.1493960226985147,0.4971133323763621,0.01717675600307174,800.6227106227107,796.5934065934066,795.3846153846154,814.7252747252747,876.7765567765568,-0.727661,0.089539,0.671265,1.300964,3.087921,-4.643097,1,1,1,1,1,100.000000
2023-09-08 13:49:09.400,0.7441218041857227,0.07564674375784965,0.2550159457275242,0.6941989557428504,0.8589901968851711,0.003380313742874213,-0.1181540030658043,0.7967984597277837,0.8744648161056197,0.4189026073369189,0.1302774261944159,1.07014140532783,0.4523023848288308,0.2051153758976736,0.1674609426997766,0.5522978253323471,-0.0949242724381039,-0.05618116733696039,0.2177264193699316,0.1524416539312224,678.1318681318681,812.7106227106227,816.3369963369963,719.2307692307693,805.4578754578755,-0.765564,0.155090,0.657837,-40.314941,-3.850555,37.623291,1,1,1,1,1,100.000000
2023-09-08 13:49:09.555,,,,,,,,,,,,,,,,,,,,,,,,,,,,,,,,,,,,,,/muse/elements/blink
2023-09-08 13:49:09.555,,,,,,,,,,,,,,,,,,,,,,,,,,,,,,,,,,,,,,/muse/elements/jaw_clench
2023-09-08 13:49:09.752,,,,,,,,,,,,,,,,,,,,,,,,,,,,,,,,,,,,,,/muse/elements/blink
2023-09-08 13:49:10.400,0.6692457245918576,0.2921451151016741,0.2221597847902654,0.192003276752613,0.7026611022458408,0.1999728742664513,-0.1847607563877934,0.236400258368818,0.6683635366035758,0.3905301900982956,0.07371789293406993,0.5767400866184593,0.3673276166398163,0.02797183412025137,-0.08273547144066815,0.5554198442824687,0.04586689713866354,-0.1262845453044258,0.2178523362564574,0.2855750498942074,796.1904761904763,795.7875457875458,791.7582417582418,790.1465201465202,808.2783882783883,-0.761536,0.207520,0.604004,2.743988,0.186920,4.224396,1,1,1,1,1,100.000000
2023-09-08 13:49:11.400,1.166899934262651,0.3979922512242418,0.2221597847902654,0.192003276752613,0.8729854674078954,-0.04676492909842543,-0.1847607563877934,0.236400258368818,0.6071029724791204,0.05857337963783531,0.07371789293406993,0.5767400866184593,0.5627285042145611,0.1894646752501555,-0.08273547144066815,0.5554198442824687,0.2639765501035367,0.2213453866243937,0.2178523362564574,0.2855750498942074,794.5787545787546,784.1025641025641,793.3699633699634,810.6959706959707,806.6666666666667,-0.637695,0.211792,0.732605,1.293488,-7.379608,-2.572021,1,1,1,1,1,100.000000
2023-09-08 13:49:12.400,1.218003679149653,0.6478460432620923,0.2868761362374943,0.192003276752613,0.9759745057584994,0.187109130503773,0.1032623574293576,0.236400258368818,0.9637160436767536,0.2870920789021409,0.3230239797470638,0.5767400866184593,0.4946969376295492,0.2627663389423019,0.5013093396764273,0.5554198442824687,0.02122868949490181,0.1285768758618325,0.3431956325798052,0.2855750498942074,767.5824175824176,776.0439560439561,801.4285714285714,794.5787545787546,791.7582417582418,-0.115723,0.160767,0.973022,-6.302948,-12.493744,-18.998566,1,1,1,1,1,100.000000
2023-09-08 13:49:13.401,1.049287885342559,0.2118836535391531,0.6774457247208259,0.3045061816722577,0.9389436424519541,-0.2114302668147424,0.3559246190250612,0.2961929962836736,1.274902263211499,0.005010040380810268,0.6613852956877282,0.4738161971175362,0.4670300047120384,0.1926041575174497,0.3953627968516892,0.4038657804830122,0.0750536673996173,-0.08283115627301563,0.391495398637196,0.3879813243133778,801.8315018315019,789.7435897435897,788.9377289377289,836.8864468864469,788.5347985347986,-0.186829,0.011719,0.967529,9.652557,-12.613373,-12.037659,1,1,1,1,1,100.000000
2023-09-08 13:49:14.409,0.6892582361297368,0.2982645256203809,0.3698276013775097,0.8614869226850519,0.5287708964505524,0.08494077822819986,0.09549179915982083,0.6684102005028817,1.003864307485521,0.1681142276353925,0.4090515709537008,0.9505659477074716,0.431673458798958,0.08602730578088236,0.07298476665201459,0.5106605154292692,0.1593878571736551,-0.1730059542106218,0.09208578316713453,0.2689292881141064,707.948717948718,833.2600732600733,786.5201465201466,706.3369963369963,796.1904761904763,-0.438110,0.114624,0.903198,9.727325,31.903534,-24.329529,1,1,1,1,1,100.000000
2023-09-08 13:49:14.622,,,,,,,,,,,,,,,,,,,,,,,,,,,,,,,,,,,,,,/muse/elements/blink
2023-09-08 13:49:15.401,0.7567728851627195,0.8273226111798356,0.7835522101902407,1.09863435003404,0.4295688600721344,0.5879632681013605,0.2565022034529675,0.905544088309766,0.732974916412408,0.4043876156976836,0.3845683009077073,0.9505659477074716,0.5192830171881977,0.007466206568164792,0.2729363386976418,0.6053818927006418,-0.008536820311953035,-0.1060585643552652,0.03865236637859133,-0.00914732626273774,802.6373626373627,804.2490842490843,794.5787545787546,802.6373626373627,771.6117216117216,-0.607361,0.109497,0.771606,4.545898,-6.811371,1.076660,1,1,1,1,1,100.000000
2023-09-08 13:49:16.404,0.8767261254041783,0.7507244988114272,0.6401051941582571,1.088705182310504,0.8192297455936507,0.3778885515732677,0.185720547117719,0.9127628555198135,0.7070678356883965,0.4770783014581756,0.2505665481434323,0.9505659477074716,0.3220272019082452,-0.1601002103092918,0.1248911120162587,0.6084100803757623,0.1518430281681396,-0.2698299303276604,-0.2020291297670755,-0.03285104509804708,794.5787545787546,785.7142857142858,787.3260073260074,774.8351648351648,846.1538461538462,-0.601196,0.128235,0.783630,1.293488,-4.800110,-2.086029,1,1,1,1,1,100.000000
2023-09-08 13:49:17.203,,,,,,,,,,,,,,,,,,,,,,,,,,,,,,,,,,,,,,/muse/elements/blink
2023-09-08 13:49:17.413,0.7554639070422609,0.3178680212203999,0.1670794382111166,0.6506952001026424,0.7741919008686888,-0.1461077021961844,0.06159219881213562,0.6323473556340951,0.7906460320359687,0.2675351336013368,0.2136779556249486,0.8072110592543803,0.3180124914758036,-0.1341081880453486,0.178319362562709,0.5730391910259558,-0.002588271742257831,-0.2807757592174547,-0.1667253253190232,-0.1942946511211279,816.3369963369963,797.8021978021978,763.956043956044,800.6227106227107,608.4249084249085,-0.601074,0.113770,0.789185,3.588867,-5.390778,0.216827,1,1,1,1,1,100.000000
2023-09-08 13:49:18.400,0.1089024472806767,0.7690345910933301,0.5982047433276623,0.3217166681235773,0.5400025646499899,0.2407405730940234,0.1314384343060136,0.3594045610198637,0.7571213844796539,0.5542273846928857,0.4751111664671792,0.7401304416067309,0.207525480392198,0.3377839282357748,0.456078153638997,0.4367916936677451,-0.1768469106318182,0.01454191292669431,0.2457663880252005,-0.3282411765124524,784.1025641025641,786.9230769230769,789.7435897435897,786.1172161172161,707.948717948718,-0.194092,0.162720,0.937866,2.228088,-3.132782,-4.411316,1,1,1,1,1,100.000000
2023-09-08 13:49:19.400,0.4577387734401178,0.6945261683564005,0.7163764722243656,1.423212800657728,0.1660394143028588,0.1716549123622759,0.2160905977480434,1.019236020324725,0.5724692475770121,0.5024176663945301,0.4925403666590399,1.158477084574719,0.4707783912157874,0.3056001328239057,0.3155754204469086,0.7527390285139706,0.208947793517097,-0.09726095982032446,0.1346523903231918,0.6364203532455542,769.5970695970697,792.1611721611722,782.4908424908425,757.9120879120879,664.4322344322344,-0.152527,0.142517,0.964783,7.207642,0.523376,-6.235657,1,1,1,1,1,100.000000
2023-09-08 13:49:20.402,0.5922200439092541,-0.1464895558934904,0.3013315764006177,0.8851532583662737,0.4958759518676127,-0.09088714967162533,-0.0865159871622114,0.6477440748858206,0.7539888251742243,0.1263093561010333,-0.001242472278835694,0.6424339654368454,0.267235133274643,-0.02943491766599554,-0.04719222696911374,0.3790395513515661,-0.05203907346857167,-0.5356092732964575,-0.6707313124650124,-0.01105912265284977,796.996336996337,795.7875457875458,790.1465201465202,774.8351648351648,684.981684981685,-0.188721,0.116455,0.966431,3.678589,-0.762634,0.717773,1,1,1,1,1,100.000000
2023-09-08 13:49:21.408,0.3962750196117488,-0.2334619943648762,0.03053970222064135,0.6153352959629252,0.3686400806619621,-0.2175975326690987,-0.3377436439818842,0.3589319995029928,0.6862978838684978,0.135983885278422,-0.2421722969917826,0.6406672951576704,0.116717103654691,-0.1130368908993045,-0.2421201837468574,0.2531079906974745,-0.1658450101781098,-0.609867196160803,-0.7031801335560885,-0.09147002193903446,802.6373626373627,792.967032967033,791.7582417582418,793.7728937728938,796.996336996337,-0.195801,0.117554,0.965942,3.289795,-4.022522,0.456085,1,1,1,1,1,100.000000
2023-09-08 13:49:22.400,0.7714322365505931,-0.02160864453563357,0.3979511625928179,0.6729296903790736,0.7114814064217169,-0.3848469373396104,-0.4877560935533912,0.6531525621840079,1.041815574202998,0.06532940866432523,-0.01678782677402151,1.04647085735958,0.2233888935004717,-0.0938775545025835,-0.1933257191134603,0.3293514298038719,-0.2287505823266862,-0.3940260193281126,-0.5825603208978564,-0.1119189631381186,811.5018315018315,801.4285714285714,796.5934065934066,791.3553113553114,651.941391941392,-0.219604,0.159119,0.958496,7.888031,-2.691650,-20.800476,1,1,1,1,1,100.000000
2023-09-08 13:49:22.775,,,,,,,,,,,,,,,,,,,,,,,,,,,,,,,,,,,,,,/muse/elements/blink
2023-09-08 13:49:23.400,1.204356196890241,0.9733442766368174,0.7844055807951168,0.8778747568219886,1.069271248580402,0.6352204370672356,0.462315551604044,0.9663743849789553,1.044860155996328,0.5614601922737424,0.4765990094792774,1.063008680041279,0.5688116344795374,-0.08978334886832028,-0.2058098780616072,0.423667364660016,-0.03714389785421793,-0.4291294945480305,-0.4893591450892,-0.1043134458486227,781.2820512820513,780.4761904761905,789.7435897435897,760.7326007326008,618.0952380952381,-0.207581,0.066833,0.966003,-2.093506,-1.607513,-2.788849,1,1,1,1,1,100.000000
2023-09-08 13:49:24.400,0.9135264529794529,0.8002142191520218,0.5734254975558896,0.7254360413384257,0.4491089387532042,0.53426878985444,0.3245286405491574,-0.005605609041095877,0.5368131554112681,0.4214080143415672,0.4752888314157922,0.07649316229075429,0.3820460676848165,-0.04119358159395153,-0.1573932204012191,0.2020383349043363,0.07248488031758347,-0.3659922881811072,-0.4692654405421396,0.08604397698653,802.2344322344322,793.7728937728938,792.967032967033,787.7289377289378,702.3076923076924,-0.274292,0.071960,0.954163,-5.323486,-2.684174,-4.388885,1,1,1,1,1,100.000000
2023-09-08 13:49:25.400,0.9789086682895922,0.2330451376174119,-0.07085781810811438,0.8938864142177703,0.6473497349344642,-0.01867689121278542,-0.1594825130970247,0.6852282415127151,0.8915618705515573,0.1837348690309681,0.244119269780142,1.011443700488403,0.389962359312818,-0.01627647076353733,-0.2000715639123901,0.3639150079598242,0.2103106977111188,-0.1920622784813178,-0.4859500501716819,0.3062222009875096,797.3992673992674,802.6373626373627,795.7875457875458,764.3589743589744,580.2197802197802,-0.242310,0.127441,0.929138,5.704803,-7.843170,0.097198,1,1,1,1,1,100.000000
2023-09-08 13:49:26.407,0.7326606880862606,-0.1038470832704205,-0.2653176477442803,0.7891111688550854,0.6380638410503338,-0.07938196777247526,-0.1862097435036439,0.7158567092434319,0.9429605252025036,0.2465729577701623,0.1913161300138909,1.029431176337367,0.5646438286369851,-0.1118291718509945,-0.2683960437922646,0.2296569461567224,0.06794480804602855,-0.5254184364520581,-0.6806626192268582,0.09810815358361916,800.2197802197802,800.2197802197802,790.1465201465202,757.5091575091575,612.4542124542124,-0.219055,0.120056,0.946655,1.001892,-2.459869,-3.977661,1,1,1,1,1,100.000000
2023-09-08 13:49:27.400,-0.1267634884516978,-0.1239298759215695,-0.002464700213721574,0.03757004637354211,0.06119637075433081,-0.2841248633192662,-0.3529367130073067,0.02520844462086544,0.6487122748992005,0.09170397859882008,0.0195314175505727,0.6618520959023266,0.5478531717374046,-0.1366044693223099,-0.1952152233040306,0.2870805054487303,-0.03417488277114718,-0.2544750569164935,-0.5616219826126708,-0.04527033067821571,790.5494505494506,797.3992673992674,797.8021978021978,760.7326007326008,629.3772893772893,-0.225098,0.106506,0.958435,2.093506,-2.272949,1.936493,1,1,1,1,1,100.000000
2023-09-08 13:49:28.404,0.6392119433087849,0.1075081032995975,-0.1066919042762863,0.7332374526814295,0.3883780003105138,-0.2442982165078604,-0.1652047161508327,0.4211983404620506,0.716461810140821,-0.1121919295843797,0.2377954445066654,0.7823321676656834,0.4092698500638273,-0.1789265961289508,-0.1982788867874361,0.3020834534793423,-0.07126932487582512,-0.269962712677458,-0.5324313099298604,-0.06963635967263221,788.5347985347986,795.7875457875458,799.8168498168499,770.8058608058608,641.8681318681319,-0.236084,0.066772,0.940552,-5.689850,-0.231781,-1.644897,1,1,1,1,1,100.000000
2023-09-08 13:49:29.405,0.5740190528766997,-0.08172028824827635,-0.1238601113820534,0.742836671297985,0.4003274650386687,-0.364730701554444,-0.1076046240880187,0.525042884952105,0.7247756664401754,0.2208378078290182,0.2047051080721371,0.6234073095246889,0.2802648836498824,-0.2419333188939612,-0.06788664603996336,0.2586925500461961,-0.2709075882015929,-0.2825855103034501,-0.4922305435770165,-0.06035363405102465,794.5787545787546,792.5641025641025,776.4468864468864,779.6703296703297,630.989010989011,-0.344421,-0.015381,0.927368,-7.686157,-1.435547,-2.018738,1,1,1,1,1,100.000000
2023-09-08 13:49:30.400,0.7955438924864402,-0.06358565393105685,0.3318823179018192,0.8320580847160357,0.7603688678168,-0.2973843293298871,0.1966277823135213,0.8879459120432861,0.407544089442697,0.1885368232644142,0.1538301632797657,0.5975719170651866,0.2295444324413332,-0.1117858174947856,0.08225991534562219,0.4921865112899072,-0.3220509248913433,-0.305484627318454,-0.3336921373163774,-0.02935985250257703,784.5054945054945,805.8608058608058,796.5934065934066,749.047619047619,693.040293040293,-0.428284,0.006165,0.881897,6.684265,2.153320,-0.800018,1,1,1,1,1,100.000000
2023-09-08 13:49:30.697,,,,,,,,,,,,,,,,,,,,,,,,,,,,,,,,,,,,,,/muse/elements/blink
2023-09-08 13:49:31.407,0.8951276156790521,0.5009684746531147,0.4942832665944571,0.7501115861908576,0.7433179368806859,0.1859580137594298,0.06215481918419737,0.8136661881161081,0.4130756428614784,0.1638499431740619,0.2335848681349674,0.5531491101268911,0.3737368975888622,-0.2220662722987852,0.05995579258103788,0.3883065573086634,-0.3617403468455325,-0.5518828837811206,-0.424990863131322,0.003797108031066981,795.3846153846154,794.5787545787546,805.4578754578755,783.6996336996338,794.5787545787546,-0.401978,0.056396,0.899597,1.323395,4.329071,-0.306549,1,1,1,1,1,100.000000
2023-09-08 13:49:32.410,1.088807564478064,0.5564658602084954,0.446823839494529,1.061671391399468,0.6474695397694666,0.1054312406614668,-0.1020265851246379,0.5848811174695713,0.8930808287317202,0.2412962439945014,-0.03373623684666976,0.7417591102242567,0.4559811255197906,-0.03339010785456858,0.006922139086228411,0.4231743679681449,-0.3583951457996383,-0.4808697586581951,-0.4940942033044274,-0.1271797839175041,801.8315018315019,792.1611721611722,794.1758241758242,785.7142857142858,667.2527472527473,-0.369385,0.024292,0.903320,-4.934692,-2.018738,11.446991,1,1,1,1,1,100.000000
2023-09-08 13:49:33.400,0.7569059210155115,0.321037252163539,0.3617372887291973,0.767843580049116,0.4071672903221363,0.2159598647799754,-0.1019570920594523,0.4337917194778627,0.7393034675752761,0.3372492995035333,0.005351842902854027,0.7451036093583923,0.2273759922703879,-0.0386380209034345,-0.002026871568095649,0.4423452785537733,-0.2713278628396699,-0.4076076018917373,-0.5368147297415196,-0.1219760676678583,795.7875457875458,792.967032967033,796.5934065934066,774.0293040293041,664.4322344322344,-0.306213,-0.056213,0.941406,1.368256,3.753357,0.299072,1,1,1,1,1,100.000000
2023-09-08 13:49:34.400,0.7617844187225783,0.1608076336921044,0.533008456630469,0.9596842141422053,0.8002603448260894,-0.0783985449204937,-0.01302654117291779,0.8002432718057623,0.995547114080552,0.1714385022328831,0.2650707667809909,0.9850023879382002,0.1587011164960959,0.08300320128352424,-0.1619456892914801,0.4905727956619674,-0.06643139485191847,-0.377432724103982,-0.5529436750817192,-0.03081925975107856,790.1465201465202,794.981684981685,791.3553113553114,765.5677655677656,693.040293040293,-0.296570,-0.035278,0.940552,2.609406,-1.405640,-0.396271,1,1,1,1,1,100.000000
2023-09-08 13:49:35.148,,,,,,,,,,,,,,,,,,,,,,,,,,,,,,,,,,,,,,/muse/elements/blink
2023-09-08 13:49:35.400,0.6892352787074467,0.05044724228632928,0.07839314634772566,0.8535086008267764,0.8131076272223738,-0.07089685322614381,-0.151590516372125,0.6378695555198823,0.7178125846337755,0.2117534935970147,0.1143345861185454,0.7002868477931098,0.3250889173357809,-0.07205769791122395,-0.2404674433350542,0.5892171274534337,0.03460082370379401,-0.3692109675078548,-0.4968168654472411,-0.1751574066273043,792.1611721611722,789.7435897435897,792.967032967033,780.4761904761905,718.4249084249085,-0.302490,-0.034119,0.933167,3.753357,0.314026,-0.254211,1,1,1,1,1,100.000000
2023-09-08 13:49:36.198,,,,,,,,,,,,,,,,,,,,,,,,,,,,,,,,,,,,,,/muse/elements/blink
2023-09-08 13:49:36.405,0.6137188573641613,0.2823178518021331,0.2448208825805697,0.7768249010314343,0.6497730435979607,0.08998171673158359,-0.07600720367057454,0.6111724561095973,0.4027203214223027,0.245914493625872,0.06363689772072451,0.6449668816118914,0.2920424390238507,-0.1386229218539289,-0.04178141011213816,0.5424316894048758,0.08202926116957963,-0.4781010873453024,-0.0803930437304889,-0.240691037438499,799.0109890109891,784.5054945054945,801.8315018315019,813.5164835164835,866.7032967032967,-0.568420,0.106934,0.793213,12.284393,17.592926,-6.759033,1,1,1,1,1,100.000000
2023-09-08 13:49:37.400,0.6137188573641613,0.5716911877387526,0.1847844160153211,0.7768249010314343,0.6497730435979607,0.2897466163499993,0.1047104083306897,0.6111724561095973,0.4027203214223027,0.2382660261983305,0.1467401487155891,0.6449668816118914,0.2920424390238507,0.004531132495823936,0.2030479094863457,0.5424316894048758,0.08202926116957963,-0.4340596895046834,0.2449987784210106,-0.240691037438499,781.6849816849817,791.7582417582418,787.3260073260074,770.4029304029305,674.9084249084249,-0.725952,0.117065,0.674072,6.228180,-6.287994,0.134583,1,1,1,1,1,100.000000
2023-09-08 13:49:38.400,0.3365444373962944,0.2563907289245625,-0.09624838619412622,0.6047796666661278,0.07211290286457224,0.1601214900362113,-0.1211940002965278,0.3420828913562128,0.5954923130951864,0.2380918522660355,0.06855882749208692,0.4884228825825781,0.2323226398595071,0.1376414816408997,-0.0007439181499196049,0.4212671204485264,-0.3001987114307461,-0.3457101843213068,-0.2239453206397934,-0.03710156329312628,799.4139194139194,786.9230769230769,801.8315018315019,788.5347985347986,702.3076923076924,-0.607971,0.116577,0.811279,-13.869476,-75.747528,21.144409,1,1,1,1,1,100.000000
2023-09-08 13:49:39.400,0.532244534986842,-0.0008357953602637876,0.224773672807879,0.8136146324532765,0.4280092750564733,-0.2039579716706522,-0.1650161399658189,0.5891761330101636,0.4578465238474881,0.1468453408186063,0.01692242330333273,0.5538052241749262,0.1557666505485405,0.1016848539803544,0.07564093488903978,0.4168858584449069,-0.06909402067169931,-0.1523167205359529,-0.2533479669562375,0.01480965403402841,779.6703296703297,792.5641025641025,793.7728937728938,790.5494505494506,830.4395604395604,-0.238098,0.136658,0.927002,4.530945,0.127106,-1.256104,1,1,1,1,1,100.000000
2023-09-08 13:49:40.400,0.3625377697941046,0.1738506678018667,0.1584167640022776,0.7437459039557088,0.3361669788329808,-0.1533638596522987,-0.3333317288522629,0.4222854147887468,0.5118676070223057,0.1442171080144373,-0.1528047704965318,0.5856418680745376,0.1634400663384801,-0.1135201730492586,-0.2174753114474633,0.2188532938482225,0.04393391129144229,-0.4294792519293479,-0.4708411057639855,-0.05962809539293503,802.6373626373627,793.7728937728938,797.8021978021978,801.025641025641,782.0879120879121,-0.195190,0.108093,0.966370,-8.411407,-1.128998,-0.598145,1,1,1,1,1,100.000000
2023-09-08 13:49:41.400,0.4630609653793829,0.621500096457843,-0.09145444323375569,0.665499255741972,0.6228373536798029,-0.09938461394539998,-0.01528872294682533,0.768309264578827,1.025981277096836,0.2248137384102912,0.102307472561741,0.6622112686827787,0.6907693008465017,-0.1021811214215478,-0.2146131198631193,0.3414105029584162,0.03584854321250517,-0.5790438962581026,-0.6822960205809345,-0.04447150431950575,789.7435897435897,795.7875457875458,786.5201465201466,803.040293040293,720.8424908424909,-0.176819,0.132812,0.965454,1.570129,-3.745880,-0.418701,1,1,1,1,1,100.000000
2023-09-08 13:49:42.399,0.5260865219696969,0.07212130245868799,-0.08443900929288499,0.5851020198617068,0.5737414312111054,-0.1417475679160156,-0.2161533781518344,0.7021384809882978,1.231074536377724,0.1781322036402789,0.01320620353586286,0.6945620981414482,0.8758942317619046,-0.1103960895822356,-0.2036907715764363,0.4656468148173744,0.3712252480043962,-0.3519791131368625,-0.6339726012290335,0.08578140446977407,802.2344322344322,795.7875457875458,796.5934065934066,799.8168498168499,857.032967032967,-0.209656,0.073853,0.966125,-3.454285,2.519684,-10.669403,1,1,1,1,1,100.000000
2023-09-08 13:49:42.988,,,,,,,,,,,,,,,,,,,,,,,,,,,,,,,,,,,,,,/muse/elements/blink
2023-09-08 13:49:43.400,0.5205992302497259,0.2646068608028957,0.4937552492882879,0.6577165096759141,0.4460274296189306,0.2508213756452186,0.1516633831100649,0.5963118388139126,0.7813346774316587,0.4029112312445365,0.6583393509845827,0.5751392469324602,0.6053293570866655,0.02325984596515025,0.2291378984167641,0.5091480089967537,0.3506264505318183,0.08873993527672391,-0.3496759677471245,0.0560030803765821,801.4285714285714,795.3846153846154,800.2197802197802,809.4871794871796,770.8058608058608,-0.726257,0.083801,0.693359,5.772095,3.671112,-7.289886,1,1,1,1,1,100.000000
2023-09-08 13:49:44.399,0.5875915333833447,0.5606772219059906,0.7743173150188358,0.5883531875325033,-0.3786363130351772,0.3364889240261065,0.4410090387850898,0.3332436422121455,0.5789171361900256,0.3728577496497271,0.6583393509845827,0.5151908753342767,0.4805633783499645,0.08299089984666561,0.4883066776511036,0.5208618978121542,0.3065555189283339,0.1731701978099031,-0.0898655565391078,-0.1517847524540469,790.5494505494506,799.0109890109891,795.7875457875458,782.893772893773,778.8644688644689,-0.776367,0.089966,0.626404,-7.297363,8.374023,9.181519,1,1,1,1,1,100.000000
2023-09-08 13:49:44.813,,,,,,,,,,,,,,,,,,,,,,,,,,,,,,,,,,,,,,/muse/elements/blink
2023-09-08 13:49:45.400,0.5551703324452654,0.631205978790817,0.2953810305694987,0.2065343381750208,0.8466634782704681,0.1176757694471304,0.02447847828349922,0.6528584386125719,0.5763399697319671,0.1958109933946476,0.2057148654597602,0.5105738445437594,0.3963596960955431,-0.02319106354196279,0.3179575270459443,0.2521609665746523,-0.3069470490685066,-0.4361166852254688,-0.09537765466346185,-0.02747842287747709,820.7692307692308,818.3516483516484,778.4615384615385,813.919413919414,972.2710622710623,-0.666870,0.034119,0.740051,-23.619232,10.116119,39.656982,1,1,1,1,1,100.000000
2023-09-08 13:49:45.515,,,,,,,,,,,,,,,,,,,,,,,,,,,,,,,,,,,,,,/muse/elements/jaw_clench
2023-09-08 13:49:45.845,,,,,,,,,,,,,,,,,,,,,,,,,,,,,,,,,,,,,,/muse/elements/blink
2023-09-08 13:49:46.400,0.5455032216112625,0.8118348592719108,0.2508357545961826,0.2230912762918599,0.8889573792466496,0.356728982541782,0.05526444163684874,0.7100547656523946,0.4814743081899088,-0.4053714693434787,-0.04758948601649959,0.505425107549392,0.3410511749612207,0.01929088892451014,0.2055792044030929,0.2655910033234762,-0.3421824571536786,-0.2635838041459586,-0.1089651274204004,-0.04123741657720215,822.7838827838829,836.4835164835165,814.7252747252747,817.5457875457876,780.8791208791209,-0.736023,0.168762,0.648926,2.317810,-6.310425,6.886139,1,1,1,1,1,100.000000
2023-09-08 13:49:47.402,0.5455032216112625,0.8118348592719108,0.2508357545961826,0.2230912762918599,0.8889573792466496,0.356728982541782,0.05526444163684874,0.7100547656523946,0.4814743081899088,-0.4053714693434787,-0.04758948601649959,0.505425107549392,0.3410511749612207,0.01929088892451014,0.2055792044030929,0.2655910033234762,-0.3421824571536786,-0.2635838041459586,-0.1089651274204004,-0.04123741657720215,819.1575091575091,795.7875457875458,797.8021978021978,830.0366300366301,845.3479853479854,-0.603577,0.196838,0.783203,4.792633,-81.310272,6.587067,1,2,1,1,2,100.000000
2023-09-08 13:49:48.044,,,,,,,,,,,,,,,,,,,,,,,,,,,,,,,,,,,,,,/muse/elements/blink
2023-09-08 13:49:48.399,0.9412925987578782,0.05591247810604413,0.2508357545961826,0.7800014587660455,0.6958902309359704,0.4983734767431446,0.05526444163684874,0.7308431314952505,0.7251717613787092,0.76469012567851,-0.04758948601649959,0.7074652759154403,0.7131273158405252,1.124473622289546,0.2055792044030929,0.5956431756565498,0.4372889298705075,0.9082249513287339,-0.1089651274204004,0.3957647186150365,790.5494505494506,781.6849816849817,790.5494505494506,826.4102564102565,981.1355311355312,-0.169922,0.113647,0.949402,-2.968292,-12.239532,-2.699127,1,1,1,1,1,100.000000
2023-09-08 13:49:49.400,1.13448272240961,0.2827829733029945,0.3652581362235479,0.8345336932050804,0.9294248520883149,0.3290217644414117,0.2829780312218614,0.8134167110403459,0.7157780841429683,0.7999430799926152,0.396538467703978,0.683890201492142,0.7902433716588407,0.8815405392129729,0.6422391237537836,0.5962364708930357,0.4905927656503356,0.7813156172466423,0.5261006423631565,0.3701471662998392,801.4285714285714,789.7435897435897,782.4908424908425,810.6959706959707,738.5714285714286,-0.157471,0.123779,0.967163,-6.527252,-3.282318,-8.321686,1,1,1,1,1,100.000000
2023-09-08 13:49:50.281,,,,,,,,,,,,,,,,,,,,,,,,,,,,,,,,,,,,,,/muse/elements/blink
2023-09-08 13:49:50.402,0.5108879939116687,0.3063949117197176,0.187270562339591,0.5164321900955237,0.5147804283652396,0.1640144086174689,0.142425307220326,0.9015558482443415,0.8361572097366244,0.4412412439182838,0.2856554288532648,0.7839181538505752,0.4248422756044162,0.5137918023665888,0.591495269420736,0.5015222971745229,0.1580032719888059,0.3705077726583675,0.4235768284994963,0.3402047687299709,791.7582417582418,799.4139194139194,798.2051282051282,827.6190476190476,842.1245421245421,-0.194885,0.013245,0.971069,-4.164581,3.686066,-5.001984,1,1,1,1,1,100.000000
2023-09-08 13:49:51.399,1.201594429221678,0.6020419638053609,0.2803873171471932,0.6822675353538105,1.005316122845156,0.3800928930137289,-0.1766593501246227,1.055704745571346,0.9872375559932065,0.3522088054987996,0.3355921665497791,0.8429887277225221,0.3970243359544253,0.3093376080448337,0.444640734891334,0.5683896866424781,-0.09200848765413815,-0.06214011000460564,0.3753280459444944,0.3438552668703196,802.2344322344322,791.3553113553114,804.6520146520147,833.6630036630037,851.7948717948718,-0.246216,-0.024231,0.987732,0.807495,2.908478,2.280426,1,1,1,1,1,100.000000
2023-09-08 13:49:52.400,1.087931952750558,0.2663391481366436,0.2850446600567611,0.777863796927965,0.9525215174445064,0.1840481845335098,-0.1298425908689254,0.6980914871224012,0.9705729515566631,0.3663181937593767,0.3312438359672478,1.220835653168173,0.3957509708832774,0.1187205505257401,0.1220593480048091,0.5288666474285646,-0.1152938447359684,-0.2554158465660215,-0.07144198928208363,0.2326034535235147,790.1465201465202,790.952380952381,786.9230769230769,803.4432234432235,724.8717948717949,-0.086548,-0.176636,0.968384,5.966492,-4.807587,5.787048,1,1,1,1,1,100.000000
2023-09-08 13:49:53.400,0.9015719311033124,0.4114512737357626,0.5445989245637224,0.4847884214118745,0.6172314180346091,-0.007342614249778552,-0.05658626910370075,0.3713514058719567,0.9710730223083212,0.2724415688021956,0.3804246910760982,1.314247701853739,0.4326511357230935,0.007645442509144937,-0.01315860998444331,0.8480780532560755,-0.06540015777346977,-0.3806396670750213,-0.0491606057980272,0.4053154330870025,801.4285714285714,789.3406593406594,799.4139194139194,827.6190476190476,735.7509157509157,-0.130676,-0.210510,0.961182,-10.086212,-3.940277,-5.704803,1,1,1,1,1,100.000000
2023-09-08 13:49:54.237,,,,,,,,,,,,,,,,,,,,,,,,,,,,,,,,,,,,,,/muse/elements/blink
2023-09-08 13:49:54.400,0.4918244372741368,0.2906380749931397,0.01139850742183807,0.5315437128079643,0.1241049647023827,-0.08443583888317935,0.1148907671817162,0.4062032835716485,0.6039690809870357,0.1003894534177518,0.3921670176465686,1.129128872749102,0.323905680136319,0.02237374250561127,0.2090333102438738,0.8338583041775922,-0.09698950018410679,-0.3133959042772563,0.09341746641451458,0.4619979312847836,814.7252747252747,801.4285714285714,788.1318681318681,820.3663003663004,895.7142857142858,-0.114380,-0.194336,0.965088,2.355194,-4.635620,-0.269165,1,1,1,1,1,100.000000
2023-09-08 13:49:55.402,0.0610772283622939,0.0884472464862158,-0.02996442457448674,0.7108807909347538,-0.1437908781521032,0.09250645864623168,0.02992686571799076,0.3474746494867142,0.5145611594424777,0.2712099653461962,0.2189685880268184,1.063532432561904,0.2054802325893387,-0.04846303420503283,0.260496880996136,0.9228118527495124,-0.2451750823787604,-0.3893800688082128,0.01194245332294829,0.6522240187931365,791.3553113553114,789.7435897435897,799.8168498168499,811.5018315018315,709.5604395604396,-0.160522,-0.093262,0.958313,18.325653,-1.300964,14.564819,1,1,1,1,1,100.000000
2023-09-08 13:49:56.403,0.4407899187976059,0.151415188511753,0.1536745565671153,0.8357967182173833,0.4675923127731297,0.07824747643212113,0.2527824843033798,0.5118872657775219,0.5582986332322659,0.0651261929751885,0.4153442696445843,0.9137576684534477,0.392881322027088,-0.1116198655233177,-0.04387239696568351,0.7559574749554826,-0.1851158791154789,-0.6011026747212294,-0.4738895004484005,0.2783733407248364,791.7582417582418,791.7582417582418,790.1465201465202,809.0842490842491,764.7619047619048,-0.174561,0.061401,0.960205,6.474915,-2.429962,2.743988,1,1,1,1,1,100.000000
2023-09-08 13:49:56.891,,,,,,,,,,,,,,,,,,,,,,,,,,,,,,,,,,,,,,/muse/elements/blink
2023-09-08 13:49:57.402,0.512869452793933,0.1100419661490884,0.5785380607251684,1.009756254649371,0.5975622743453827,0.3184807421277957,0.1970601436439764,0.7135925069661523,0.6328985162751,0.3312573474756473,0.4215596007272771,0.9156296352569763,0.2367702525877804,-0.08305462399209428,-0.03915896758287981,0.6832215940512409,-0.2006722491194796,-0.5413335660483183,-0.6050247677311698,0.09989874942469702,792.967032967033,780.0732600732601,785.3113553113553,819.5604395604396,877.985347985348,-0.158447,0.070374,0.965393,2.863617,-0.411224,7.267456,1,1,1,1,1,100.000000
2023-09-08 13:49:58.220,,,,,,,,,,,,,,,,,,,,,,,,,,,,,,,,,,,,,,/muse/elements/blink
2023-09-08 13:49:58.405,0.4944703898683823,0.1321310278910549,0.5393647435600749,1.092695134141865,0.6639952774721802,0.2245434960309855,-0.02515901120885545,0.8418463523582681,0.5792799760791181,0.4348526825509162,0.4235502061789784,0.8758749770025961,0.2146883753005066,-0.009462221521174451,-0.0234590992811929,0.4836758058450287,-0.3180991840531712,-0.5521856206033497,-0.4575075622382128,-0.1038776484634691,790.5494505494506,790.952380952381,795.3846153846154,805.4578754578755,721.2454212454213,-0.226868,0.156372,0.948975,-2.930908,-6.945953,-1.263580,1,1,1,1,1,100.000000
2023-09-08 13:49:59.413,0.4944703898683823,0.496319197676712,0.3308175201092949,1.092695134141865,0.6639952774721802,0.1292615466286558,-0.1061618689065721,0.8418463523582681,0.5792799760791181,0.5087521517186872,0.306010766537049,0.8758749770025961,0.2146883753005066,-0.1290186012284145,-0.05057136944316934,0.4836758058450287,-0.3180991840531712,-0.310727143020556,-0.4914034739450525,-0.1038776484634691,786.5201465201466,793.7728937728938,796.996336996337,815.934065934066,793.7728937728938,-0.173157,0.111389,0.957397,4.097290,-6.205750,-3.424377,1,1,1,1,1,100.000000
2023-09-08 13:50:00.399,1.069072771191491,0.673302952323638,0.2050707507963591,0.6968768844132631,0.9603561248794136,0.07631824737989279,0.3365170277600384,0.6575413992306205,1.078582659480014,0.3750228303207067,0.3427701057979827,0.946388326912321,0.5463396894634868,0.01614451947982704,-0.1343640102274853,0.3723705159302053,-0.04717795139028368,-0.3561025515731561,-0.6305211753920853,0.04529082522950568,792.5641025641025,797.3992673992674,795.3846153846154,818.3516483516484,858.2417582417582,-0.243530,0.056519,0.944885,2.145844,0.710297,4.373932,1,1,1,1,1,100.000000
2023-09-08 13:50:01.399,0.8785586707682798,0.1780990051419364,0.1041290861781448,0.6242036151793255,0.6435661325993266,-0.1894430341625685,0.1560374876760536,0.5362202194950744,1.063284225424786,0.2053712379831459,0.2856194030907187,0.9764907863657885,0.452767059451106,-0.06690159786791389,-0.1458811381272715,0.52050413814922,-0.2211304738684532,-0.6339420655885263,-0.5890015657862963,0.06507023189468031,822.3809523809524,794.981684981685,805.8608058608058,836.0805860805862,776.4468864468864,-0.267273,0.049255,0.959473,-0.650482,-5.674896,-4.224396,1,1,1,1,1,100.000000
2023-09-08 13:50:01.945,,,,,,,,,,,,,,,,,,,,,,,,,,,,,,,,,,,,,,/muse/elements/blink
2023-09-08 13:50:02.399,0.8168912222806469,0.5205726741655776,0.7413424457318759,0.9565586113539787,0.6014463544641752,0.2250632181565371,0.1582251527248454,0.4650268446915501,0.6765933015390719,0.7753045753391883,0.9761629740249481,0.793575666666982,0.4283520995947439,0.5379009813936639,0.6866356399332129,0.5489254729255172,-0.3779006534999769,0.005170821717387464,0.3459538855757633,-0.04723783957371851,822.7838827838829,818.7545787545788,784.5054945054945,813.5164835164835,856.6300366300367,-0.731506,0.058105,0.701660,6.714172,4.074860,-0.583191,1,1,1,1,1,100.000000
2023-09-08 13:50:03.399,0.7773471451893258,0.7914151595555817,0.8117616934705654,1.222622028707357,0.5889310641686953,0.2808625295041662,0.4103117662734787,0.5986490868392146,0.6424683115083072,0.7762297668376354,0.9773692708600588,0.7556421240902312,0.1003875636527774,0.7092847860922946,0.8079196599304272,0.4700853085678564,-0.160215251002405,0.2111050460364144,0.465913660783514,-0.2881573447867779,779.2673992673992,786.1172161172161,792.5641025641025,802.2344322344322,801.8315018315019,-0.744019,0.058167,0.682800,3.783264,-11.813354,-2.138367,1,1,1,1,1,100.000000
2023-09-08 13:50:04.399,0.5342578525810535,0.4669187814548169,0.4192169565470068,0.7150621030463934,0.6156594411095464,0.01831301042395005,0.06567577801827487,0.6347319270633123,0.8044526879897624,0.3087922373094996,0.3795219765047533,1.242996339017365,0.1331002954246033,0.1164285253178865,0.1546876377666855,0.4439270331929382,-0.2306716437552554,-0.1935254148284857,0.01879859644472178,0.05733260240699194,788.1318681318681,796.5934065934066,787.7289377289378,804.2490842490843,747.032967032967,-0.163330,0.052734,0.979187,5.136566,-2.437439,-5.779572,1,1,1,1,1,100.000000
2023-09-08 13:50:05.399,0.2496848835024869,0.3038698885314011,0.2708370162646473,0.6016826827235755,0.567581440384453,0.09257935326176647,-0.1894877196613222,0.6683042919808656,0.8262585879634098,0.2855124792099689,0.2962517023894064,1.253518138246384,0.2213329717460992,0.07594506553385248,0.01501225871833996,0.4155902146348087,-0.222819168679631,-0.2750017447855437,-0.07563214290189497,0.1298596886618579,766.7765567765568,790.952380952381,789.7435897435897,773.2234432234433,856.6300366300367,-0.149780,-0.020630,0.987549,3.110352,-0.254211,-3.147736,1,1,1,1,1,100.000000
2023-09-08 13:50:06.399,0.859034889210854,0.5500727606158667,0.6469138469109859,0.7780097781606164,0.766588030069053,0.3777092798607266,0.1131440050616574,0.7146489493103078,0.8086291424732682,0.4666589989142286,0.3294131977684179,0.8715295775760247,0.3171862887573925,-0.02887277478884685,-0.03865166455865204,0.4713868338682542,-0.1980374249448026,-0.6326453316142272,-0.5668807404925926,0.05616340183818146,788.9377289377289,791.3553113553114,804.2490842490843,821.1721611721612,842.1245421245421,-0.148804,0.053650,0.988281,6.340332,-1.764526,-3.237457,1,1,1,1,1,100.000000
2023-09-08 13:50:07.399,1.004425599218372,0.7386735900663262,0.8371721756915005,0.9836717722806348,0.6082452180080072,0.3848867786081181,0.2488057982376574,0.8274853020665749,0.7527500762937945,0.4644206146056988,0.3949183375123829,0.7663059367818271,0.2599954451662488,-0.1539319351953487,-0.1152008787222229,0.571132662843043,-0.165219120315706,-0.5072418502638799,-0.5781900447832178,0.1145853315212095,789.7435897435897,789.7435897435897,799.0109890109891,811.0989010989011,772.8205128205128,-0.116638,0.092590,0.992981,3.805695,-5.682373,7.140350,1,1,1,1,1,100.000000
2023-09-08 13:50:08.399,0.7078179067135811,0.2893311441304913,0.7041622308502633,0.5361204879968753,0.3493387443204321,-0.1071508211302642,0.2627809699594112,0.5488913228203263,0.5586142377283821,0.1193293072391241,0.3005609901393701,0.7054427647531945,0.2831974526287065,0.05996097300392843,-0.07121942638155196,0.4135020900224229,-0.1073107574791447,-0.3184493440470995,-0.5656197882253922,0.005854596847258146,799.0109890109891,794.981684981685,798.2051282051282,815.1282051282052,838.4981684981685,-0.081604,0.027283,0.997437,2.115936,-4.112244,-3.401947,1,1,1,1,1,100.000000
2023-09-08 13:50:09.278,,,,,,,,,,,,,,,,,,,,,,,,,,,,,,,,,,,,,,/muse/elements/blink
2023-09-08 13:50:09.399,0.5875336033267392,-0.2673460280322864,-0.1460878539388175,0.3444838498280399,0.6414096247671941,-0.1940733406755981,-0.2109563641476212,0.5437639473953071,0.5683001767435745,0.2004751907322438,0.1330743035727514,0.6627122903264169,0.2777590018295386,0.05299646436787949,-0.1019207814311383,0.3950359343328959,-0.2605161310968634,-0.4336081313130716,-0.6171813509671801,-0.2065884654605293,804.2490842490843,790.5494505494506,794.981684981685,827.6190476190476,820.3663003663004,-0.156006,0.008301,0.970093,4.067383,-1.308441,-0.426178,1,1,1,1,1,100.000000
2023-09-08 13:50:10.404,0.7057190286580813,0.1433265831109483,0.2178138315923904,0.4573274331866145,0.678348224661794,-0.1009918367913511,-0.02845538533513892,0.6057471804197604,0.4923235331232151,0.4174733732000525,0.09742446281231269,0.5522906912905966,0.2563833215567707,-0.1408773971396011,-0.2208663906383448,0.5036298410733718,-0.4255635569464714,-0.5606282635329712,-0.7259137890445532,-0.190813342561656,801.8315018315019,791.3553113553114,803.4432234432235,819.96336996337,792.967032967033,-0.141113,-0.009949,0.958801,-0.500946,4.329071,6.788940,1,1,1,1,1,100.000000
2023-09-08 13:50:11.399,1.339905188844501,1.047568779340691,0.681660558191151,0.903698373838018,1.11990248297937,0.2450194150725835,0.2515239082066237,0.8295676677285302,1.104430656724416,0.5520003286287387,0.3882273838275686,0.9328101813449796,0.5347131546349371,-0.1133158798095271,-0.3635766373108439,0.5038534664559513,-0.2837540628476289,-0.5044795976612148,-0.5954153126758672,0.03736859478630233,818.7545787545788,803.040293040293,792.5641025641025,828.4249084249085,788.1318681318681,-0.157043,0.030273,0.986023,9.054413,-2.190704,-22.759399,1,1,1,1,1,100.000000
2023-09-08 13:50:12.404,1.031158619159066,0.7643100933144247,0.3778990872963044,0.8704567384071937,1.041905725326435,0.0783276546600998,0.1831745963749491,0.8170817945963739,1.179882128063266,0.1930142609983828,0.3844301065986929,1.100263152794063,0.4287710364208708,-0.3135800954711436,-0.06599754325900856,0.4798150863463514,-0.02890547570539028,-0.478003913557098,-0.6162146851425491,0.09538545283593174,805.4578754578755,792.1611721611722,803.4432234432235,818.3516483516484,881.6117216117217,-0.134155,0.041992,0.989075,3.723450,-4.396362,-0.112152,1,1,1,1,1,90.000000
2023-09-08 13:50:13.399,0.6212408965087515,0.458815631804935,0.2721092970626465,0.6403110604680525,0.6552769243591849,0.1350077942668275,-0.07690240614655139,0.5152050703462482,1.054978779235841,0.2606767002277633,0.3634275806354137,0.9330203410002731,0.3048343275490482,-0.08030831147620567,-0.1212369982696723,0.3438862313292386,-0.08287159192000493,-0.428678493964126,-0.6773762959830503,0.1995685956011695,793.3699633699634,794.1758241758242,790.952380952381,818.3516483516484,762.7472527472528,-0.166504,0.002258,0.962036,-1.786957,-4.807587,-4.344025,1,1,1,1,1,90.000000
2023-09-08 13:50:14.399,0.6717878042802907,0.8050059112517264,0.4644767798793152,0.6558299443970648,0.8320263410018028,0.4638552411167711,0.1090654461403286,0.7973937389549879,1.032341618856806,0.5293608715480078,0.3307472172608328,1.011984956841024,0.319292301017782,0.02718966823563575,-0.2306799397256294,0.4786331045615275,-0.07102728131489329,-0.4180279894357433,-0.5276878619589743,0.2047344282252642,810.2930402930403,798.2051282051282,804.2490842490843,828.021978021978,770.8058608058608,-0.151062,-0.022400,0.972900,4.545898,-7.880554,10.504913,1,1,1,1,1,90.000000
2023-09-08 13:50:15.399,0.7861755234222216,0.81861738752417,0.4094498509960747,0.5714868084811509,0.7089292888379961,0.4021395647899164,0.02360988672809561,0.379548991772435,1.01428306031078,0.538190928522797,0.2228976397851187,0.8478824071239999,0.5697466210522611,0.04196549133459039,-0.1000367231822661,0.5065210182816641,0.2247975646224563,-0.3824583407319527,-0.5502566998009565,0.3454377277246168,792.967032967033,790.1465201465202,798.2051282051282,802.2344322344322,777.2527472527473,-0.145325,0.036499,0.970642,1.173859,-3.753357,-0.904694,1,1,1,1,1,90.000000
2023-09-08 13:50:16.170,,,,,,,,,,,,,,,,,,,,,,,,,,,,,,,,,,,,,,/muse/elements/blink
2023-09-08 13:50:16.399,0.5670307373577477,0.189497870393069,0.09054285664873397,0.7211663332836413,0.6529596644701449,-0.005148462813316097,-0.2372445846281764,0.6632870906708269,0.8226884740402173,0.2429323794762861,0.435387682669725,1.035903692880977,0.2971756403122146,0.005340559707088985,0.05173406949275146,0.4771232127890881,-0.0901211466622807,-0.4551642645339438,-0.3727825959329583,0.06950128764108333,752.6739926739926,769.1941391941392,968.6446886446887,749.8534798534798,758.7179487179487,-0.555603,0.132202,0.795776,4.583282,17.017212,-11.738586,1,1,1,1,1,90.000000
2023-09-08 13:50:16.411,,,,,,,,,,,,,,,,,,,,,,,,,,,,,,,,,,,,,,/muse/elements/jaw_clench
2023-09-08 13:50:16.587,,,,,,,,,,,,,,,,,,,,,,,,,,,,,,,,,,,,,,/muse/elements/blink
2023-09-08 13:50:17.407,0.7052062737113117,0.3759823469390711,0.2267337060940056,0.9786829398031434,0.821006134400313,0.1586629323181586,-0.08306227692891065,0.8658304201443854,0.753067923341027,-0.005376923501459591,0.3500089839938232,1.035903692880977,0.2517264793841709,-0.06122426198487139,0.09508956335371919,0.5132054062178111,-0.3068051068041898,-0.5344947764284216,-0.3001864683053436,-0.1775478580815427,803.8461538461539,809.8901098901099,808.2783882783883,812.3076923076924,757.9120879120879,-0.721130,0.065613,0.702087,2.923431,-8.897400,-2.272949,1,1,1,1,1,90.000000
2023-09-08 13:50:18.398,0.7052062737113117,0.3759823469390711,0.2267337060940056,0.9786829398031434,0.821006134400313,0.1586629323181586,-0.08306227692891065,0.8658304201443854,0.753067923341027,-0.005376923501459591,0.3500089839938232,1.035903692880977,0.2517264793841709,-0.06122426198487139,0.09508956335371919,0.5132054062178111,-0.3068051068041898,-0.5344947764284216,-0.3001864683053436,-0.1775478580815427,829.6336996336996,761.941391941392,777.2527472527473,850.1831501831502,795.7875457875458,-0.132385,0.036133,0.971069,-0.508423,-8.254395,-3.072968,1,1,1,1,1,90.000000
2023-09-08 13:50:19.399,0.6903404693587389,0.3759823469390711,0.2267337060940056,0.9315578589406424,0.4181426051648419,0.1586629323181586,-0.08306227692891065,0.817552095944893,0.4816734609309674,-0.005376923501459591,0.3500089839938232,0.569944054521426,0.5469440193279884,-0.06122426198487139,0.09508956335371919,0.6974402845622966,0.1588970195074761,-0.5344947764284216,-0.3001864683053436,0.3727584414360106,816.3369963369963,788.1318681318681,811.5018315018315,834.0659340659341,796.5934065934066,-0.151306,0.154602,0.996765,8.860016,-2.624359,4.867401,1,1,1,1,1,90.000000
2023-09-08 13:50:20.399,0.6076419622249319,0.2221801518845845,0.2142724145172954,1.014722803695609,0.4395763205986247,0.01744886194975103,0.3324632782995117,0.8098825208574777,0.7310024894013714,0.832022592281119,0.6590288989517787,0.7279563603238207,0.6689958104755779,0.8922233601371811,0.9354643853280259,0.6386652832109261,0.2731264108809955,0.9633433989636034,0.6777449636073503,0.3811523110200847,812.7106227106227,779.6703296703297,776.0439560439561,826.8131868131868,751.4652014652015,-0.189270,0.202637,0.941101,5.114136,-3.386993,-17.824707,1,1,1,1,1,90.000000
2023-09-08 13:50:20.951,,,,,,,,,,,,,,,,,,,,,,,,,,,,,,,,,,,,,,/muse/elements/blink
2023-09-08 13:50:21.399,0.2842567055344112,0.2815190656325167,0.3887611533635345,0.6395816071080183,0.3978678691364304,0.1763360841192176,0.2698284180871904,0.6656031691377935,0.6911300648347172,0.8225508336638198,0.4643391643291887,0.7532981030809449,0.8955943232689637,0.7989515050427283,0.6828753838262123,0.4712374975858104,0.1752256504524571,0.7581755269978224,0.54080187772731,0.2617195732836523,797.3992673992674,801.025641025641,795.3846153846154,814.7252747252747,774.4322344322345,-0.173584,0.131104,0.946106,-9.936676,-15.230255,11.761017,1,1,1,1,1,90.000000
2023-09-08 13:50:22.406,0.7586164124519641,0.3039390719937759,0.5706980068439573,0.5587260992494393,0.6974930421545392,0.3502158924514454,0.05221834064269789,0.736248028221549,0.7693599744547855,0.4658617462868427,0.5478178456666518,0.7532981030809449,0.5038974913155707,0.6190324642341721,0.1802985680400676,0.5140469257914375,0.2103156352249478,0.3463633670338038,0.4226431372644617,0.2900091306921086,794.1758241758242,799.8168498168499,802.6373626373627,792.5641025641025,697.4725274725275,-0.140442,0.079285,0.978577,4.732819,-2.901001,1.203766,1,1,1,1,1,100.000000
2023-09-08 13:50:23.398,0.5764751256840095,0.1427726918833853,0.5511525519162356,0.6176493062152194,0.7182537486867745,0.1085139726707704,0.1117823021613154,0.4568435122711118,0.9066577526696376,0.3333052368216891,0.3932561565892613,0.7020907856736281,0.5013029798060654,0.1605712521441168,0.1688585929642472,0.6015948730461821,0.1581848674331238,-0.1035649415956057,0.2615742897666163,0.286445453867193,782.0879120879121,805.0549450549451,790.952380952381,788.5347985347986,753.4798534798535,-0.134644,0.095459,0.980530,3.805695,-0.762634,-4.605713,1,1,1,1,1,100.000000
2023-09-08 13:50:24.399,0.1503540354047057,-0.01419307818189197,0.4030191206710884,0.2718965492168113,0.6160969548461355,-0.2417564116784789,-0.01734791789836918,0.3607124909637681,0.8451800309760735,0.2355614674374143,0.3731257899103981,0.6207599970274593,0.4969472880847737,0.2053094630635584,0.2981134475791962,0.4651809771896047,0.03009534749782216,0.1229364993195518,0.1537639846815937,-0.07832840361738989,798.2051282051282,796.5934065934066,798.6080586080586,808.6813186813187,747.8388278388279,-0.344421,0.132568,0.913574,7.588959,21.084595,-3.992615,1,1,1,1,1,100.000000
2023-09-08 13:50:25.107,,,,,,,,,,,,,,,,,,,,,,,,,,,,,,,,,,,,,,/muse/elements/blink
2023-09-08 13:50:25.399,0.08807637309850549,-0.002892928243023241,0.3723954732473566,0.5221935629439655,0.5548178265135257,-0.2699764473249843,0.009271926647774899,0.5071003122773381,0.8796738625751961,0.2635467623288884,0.547831890481703,0.8022356967913434,0.6008889112477431,0.2096103344919596,0.796111761487478,0.5201171260553035,0.1916023749512568,-0.05260140376025065,0.4461488051393505,0.06988127474108136,789.7435897435897,797.8021978021978,791.7582417582418,802.2344322344322,772.4175824175825,-0.638062,0.126709,0.753784,-1.869202,22.751923,-4.478607,1,1,1,1,1,100.000000
2023-09-08 13:50:26.406,1.218119243397134,-0.2396752134235285,0.2536814973148308,1.384301492069804,1.316717627925065,-0.06709285482510152,0.2652094850928433,1.481664761595184,1.062540606987675,0.3589262047853774,0.5604298075119434,1.098119096546822,0.772740917127933,0.5080150713713446,0.821682934698559,0.7559440554825002,0.1123237763918209,0.3645180097466139,0.5924721868335994,0.3538559145069896,786.9230769230769,799.8168498168499,795.7875457875458,788.1318681318681,738.1684981684982,-0.795837,0.018616,0.600403,-0.089722,-6.639404,-4.329071,1,1,1,1,1,100.000000
2023-09-08 13:50:27.399,0.5552232410324632,0.1267878966022515,0.0919925927635889,0.403002197807403,0.3665506119898769,-0.09098221429529291,-0.002966280062608188,0.54777007246635,0.5923818854861773,0.4001729296316771,0.4059416090024481,0.4506168232628872,0.4348371522036335,0.5349271978537985,0.485137163159003,0.5541862977325257,0.1534864873376595,0.5033473599326294,0.5344961333565339,0.2419129214404774,814.7252747252747,808.2783882783883,785.3113553113553,797.8021978021978,771.2087912087912,-0.370605,0.136169,0.916748,8.045044,-0.568237,-11.731110,1,1,1,1,1,100.000000
2023-09-08 13:50:28.402,0.6255473896888818,0.7807201267307753,0.4459627352772791,0.7984851086175899,0.1607667820471175,0.3655554749595502,0.1437369275087449,0.5859059734830333,0.2193159606691401,0.4296379207989046,0.0805520911214968,0.6782159003367851,0.3743326392155849,0.425099699897351,0.4253604518817503,0.4218184786926225,0.2001361604418032,0.3429325794871019,0.2679328881393397,0.1423470789157214,787.7289377289378,784.9084249084249,786.1172161172161,788.1318681318681,693.040293040293,-0.235046,0.022278,0.965515,2.272949,-4.164581,-4.927216,1,1,1,1,1,100.000000
2023-09-08 13:50:29.409,0.8666329671934778,0.5955573020506196,0.3688333370624444,0.9018958013974662,0.5660735332247731,0.3787736001892806,-0.004430512155535362,0.7064515540483637,0.7529274899492778,0.472835745508579,0.1618136892147494,0.7649600343248453,0.2709712962026855,0.205744095470528,0.1300855366264929,0.4505339713922647,-0.2022832932407074,0.03929738094932379,0.005045116358183773,0.2612171741101033,780.0732600732601,776.8498168498169,803.4432234432235,786.5201465201466,735.3479853479854,-0.251587,0.012329,0.958008,-5.988922,-5.076752,10.362854,1,1,1,1,1,100.000000
2023-09-08 13:50:30.399,1.174211853384423,0.8740049152006029,0.4401337831808962,0.7948357018880912,0.8033173599377733,0.4613528658701851,-0.07339222226589241,0.6557084183038911,0.8406216083194298,0.5460678849900737,0.3557380061403703,0.7308627782294814,0.3748575131327888,0.2081545158006585,0.1555580471071314,0.4715808527120887,-0.1593396015606247,-0.04237290141648752,0.1499317422140013,0.1538890854226027,784.9084249084249,800.6227106227107,804.6520146520147,792.967032967033,751.8681318681319,-0.342773,0.018921,0.930664,4.934692,-7.088013,-3.633728,1,1,1,1,1,100.000000
2023-09-08 13:50:31.016,,,,,,,,,,,,,,,,,,,,,,,,,,,,,,,,,,,,,,/muse/elements/blink
2023-09-08 13:50:31.400,0.3568048692436009,0.3339731691912817,0.2960745473619795,0.6579548396975771,0.5149283154629399,-0.1025820304322799,0.06396237676703319,0.4909301470930569,0.4046802266874627,0.5674427657845539,0.3057557282112916,0.6700051636568877,0.4067439725490773,0.5559315100411925,0.4767070472596997,0.467198375735198,-0.1905696141032993,0.4621853029773051,0.2670423697680143,0.04436222626027225,791.3553113553114,782.893772893773,797.3992673992674,790.5494505494506,691.8315018315019,-0.556641,0.034119,0.829346,5.959015,-10.826416,-7.499237,1,1,1,1,1,100.000000
2023-09-08 13:50:31.628,,,,,,,,,,,,,,,,,,,,,,,,,,,,,,,,,,,,,,/muse/elements/jaw_clench
2023-09-08 13:50:31.824,,,,,,,,,,,,,,,,,,,,,,,,,,,,,,,,,,,,,,/muse/elements/blink
2023-09-08 13:50:32.400,0.2886575950620043,0.03355970452150318,0.3222792584456308,0.7962025543144949,0.4931852967382714,-0.1575394079475671,0.3061128334716067,0.5884190712810194,0.1793098889375708,0.484305951434726,0.08103416173690837,0.4572713093232548,0.3262200375674053,0.8154541614818738,0.6618711638606196,0.5172493663326457,-0.2123358106258411,0.7525610515975966,0.3572650408734998,0.1063591370499907,786.1172161172161,796.5934065934066,700.6959706959707,778.0586080586081,684.981684981685,-0.610718,0.129211,0.779114,1.943970,2.990723,2.198181,1,1,1,1,1,100.000000
2023-09-08 13:50:33.398,0.2886575950620043,0.1538176484087381,0.4217018340905592,0.7962025543144949,0.4931852967382714,-0.09736943567352452,0.3754692237854479,0.5884190712810194,0.1793098889375708,0.4819316567645393,-0.02745966088666153,0.4572713093232548,0.3262200375674053,0.9268662743705974,0.7771733408096455,0.5172493663326457,-0.2123358106258411,0.874500136684527,0.432537993677759,0.1063591370499907,865.8974358974359,822.7838827838829,876.7765567765568,836.0805860805862,591.5018315018315,-0.772522,0.181519,0.619141,2.168274,-6.796417,6.497345,1,1,1,1,1,100.000000
2023-09-08 13:50:33.567,,,,,,,,,,,,,,,,,,,,,,,,,,,,,,,,,,,,,,/muse/elements/jaw_clench
2023-09-08 13:50:34.404,0.2886575950620043,0.1538176484087381,0.4217018340905592,0.7499984841074749,0.4931852967382714,-0.09736943567352452,0.3754692237854479,0.6560491148521431,0.1793098889375708,0.4819316567645393,-0.02745966088666153,0.4985389042580931,0.3262200375674053,0.9268662743705974,0.7771733408096455,0.8570152526697056,-0.2123358106258411,0.874500136684527,0.432537993677759,0.4617442395072543,790.1465201465202,796.1904761904763,813.1135531135532,773.6263736263736,622.1245421245421,-0.604431,0.199402,0.753601,6.153412,-8.217010,-11.940460,1,1,1,1,1,100.000000
2023-09-08 13:50:35.399,0.2886575950620043,0.1538176484087381,0.4217018340905592,0.7234495050196781,0.4931852967382714,-0.09736943567352452,0.3754692237854479,0.8932698861350926,0.1793098889375708,0.4819316567645393,-0.02745966088666153,0.7219690171992046,0.3262200375674053,0.9268662743705974,0.7771733408096455,0.8371453730217642,-0.2123358106258411,0.874500136684527,0.432537993677759,0.5868885672109059,782.4908424908425,797.3992673992674,802.2344322344322,799.4139194139194,810.6959706959707,-0.600403,0.087646,0.759888,6.766510,-7.955322,-25.772552,1,1,1,1,1,100.000000
2023-09-08 13:50:36.399,0.6665715115970845,0.1538176484087381,0.4217018340905592,0.4112289013199391,0.6221492006546,-0.09736943567352452,0.3754692237854479,0.5564633487301227,0.9218391329134935,0.4819316567645393,-0.02745966088666153,0.6243717111914536,0.5515951917860158,0.9268662743705974,0.7771733408096455,0.5558708710982441,0.3939399857838429,0.874500136684527,0.432537993677759,0.4347400645780994,791.7582417582418,799.0109890109891,796.996336996337,790.952380952381,646.3003663003664,-0.507935,0.104675,0.868347,1.308441,-25.286560,-0.635529,1,1,1,1,1,100.000000
2023-09-08 13:50:37.406,0.5763537587238932,0.2070136544603863,0.3733889441010011,0.8129884994499819,0.5726750305100162,-0.2273535468620344,-0.1217823009305353,0.6846542857653614,0.9140235370158725,0.6388620770150686,0.5075887703675694,0.9157731283407872,0.6088341801803762,0.7590173428502149,0.7427395160747727,0.6131126630969173,0.2984008174628215,0.7102524900788809,0.8384242768869657,0.4433689843828836,781.2820512820513,788.9377289377289,807.8754578754579,783.6996336996338,617.6923076923077,-0.042847,0.040710,0.983398,-6.437531,-6.833801,0.800018,1,1,1,1,1,100.000000
2023-09-08 13:50:38.398,0.924532547113864,0.5465180429458739,0.3126712324424911,0.995148083874714,0.7401987881953253,0.1888768395467715,0.04243666655383746,0.8744426597457027,0.9558605539869467,0.6421888927849716,0.4999036648355906,0.966539273542466,0.6523416816848505,0.5412365489478894,0.4896827608803361,0.7257668583263823,0.3935289081304425,0.4174387641633393,0.606050168575312,0.6108265927348472,819.1575091575091,817.5457875457876,786.5201465201466,788.5347985347986,763.5531135531136,-0.258545,0.285767,0.915161,9.959106,1.226196,2.407532,1,1,1,1,1,100.000000
2023-09-08 13:50:39.398,0.6909012972333402,0.4632853982086921,0.1878341845953915,0.796389448022316,0.8391270023807886,-0.12700237695875,-0.109673579946665,0.6770436182252456,1.398269297870801,0.5142391522732264,0.1552396141616936,0.7140986384570612,1.171000138710517,0.4615835261640489,0.4745891552319917,0.6514230578599014,0.908355286866666,0.1909080530309999,0.2982932093623571,0.4888463783664375,764.7619047619048,786.9230769230769,798.6080586080586,813.1135531135532,672.893772893773,-0.218445,0.315430,0.905823,1.697235,-1.943970,1.121521,1,1,1,1,1,100.000000
2023-09-08 13:50:40.398,0.4576399250590846,0.1709221564018538,0.04385710489256062,0.5345496325690585,0.2870661393426254,-0.3217433719693339,-0.1963372181960546,0.2555192419280929,1.345941578079922,0.3392726276427369,0.4350383488490701,0.6085512764575572,1.364781842661658,0.2270764351364438,0.4060429515558432,0.538699081484466,1.132941391804877,0.08663121253941469,0.2232033603841089,0.3420265827698334,803.8461538461539,796.5934065934066,790.1465201465202,807.0695970695971,788.9377289377289,-0.186340,0.341248,0.897522,1.786957,-4.792633,0.164490,1,1,1,1,1,100.000000
2023-09-08 13:50:41.398,0.5094391581624149,-0.2876583615725585,0.08773210869583323,0.4166318326495894,0.08318935048818342,-0.3283667058022666,-0.1161733341336809,0.1368814951936263,1.366635704218229,0.2756974245133975,0.3135197706766337,0.6583022262967458,1.281419003632207,0.2305596374745418,0.1830033324631908,0.4847734516319805,1.017087787457841,0.0734674212237721,0.1015750909635761,0.2001159298923613,799.4139194139194,788.1318681318681,791.3553113553114,805.4578754578755,678.9377289377289,-0.202881,0.340393,0.899841,-0.740204,-3.140259,-2.422485,1,1,1,1,1,100.000000
2023-09-08 13:50:41.995,,,,,,,,,,,,,,,,,,,,,,,,,,,,,,,,,,,,,,/muse/elements/blink
2023-09-08 13:50:42.399,1.250813086814711,0.6689922231804105,0.2186222157887633,0.1571209460255192,1.195805472145651,0.1843555274808607,0.07116760232608244,0.4607570015638454,1.434167802857717,0.247062985614759,0.2336170202051935,0.7580485827900483,1.196397436708295,0.0791266568552111,0.2006908416629217,0.4432660421790614,0.9502356452591304,0.07044757166353817,-0.09750009283059326,0.1826818960918342,804.2490842490843,795.3846153846154,806.6666666666667,810.6959706959707,780.8791208791209,-0.240295,0.077759,0.954041,-0.605621,-0.134583,-22.632294,1,1,1,1,1,100.000000
2023-09-08 13:50:42.782,,,,,,,,,,,,,,,,,,,,,,,,,,,,,,,,,,,,,,/muse/elements/blink
2023-09-08 13:50:43.410,1.744459568996715,0.8359234525754895,0.2912166466799738,0.2563437358273499,1.684025823991742,0.5712368508318544,0.3028244901078718,0.606072233674963,1.239448460819053,0.6698609515002073,0.4372053721319834,0.6435070612318705,1.372234188484207,0.4169250478739054,0.4579602056112307,0.3966494172678758,0.9394081000363171,0.2962711244932492,0.2238861229832605,0.1896547179854008,811.9047619047619,798.6080586080586,802.2344322344322,809.8901098901099,708.3516483516484,-0.713196,0.050903,0.708008,3.880463,9.458160,3.185120,1,1,1,1,1,100.000000
2023-09-08 13:50:44.398,0.5568587894682082,0.2269507491195857,0.2445420303112285,1.089485520502059,0.7329501811112874,0.3040850123622702,0.3061350371558786,0.7097401555284442,0.8108484707144216,0.6490358709766422,0.4669973998499603,0.8893610813873595,0.4640086215035022,0.4032047439509155,0.4280497062540763,0.4978745837739096,-0.05380232636987137,0.2919355054577827,0.240756187628049,0.04175481527130234,818.3516483516484,796.5934065934066,800.6227106227107,817.948717948718,748.6446886446887,-0.292603,0.077087,0.937256,4.650574,-23.148193,-9.188995,1,1,1,1,1,100.000000
2023-09-08 13:50:45.401,0.7816283827986477,0.4596581310582623,0.023200703003756,0.8392907656503931,0.9366078648484734,0.05847577144824744,0.1297927076848238,0.8110198433615976,1.036757323661882,0.198610117235935,0.4648091546412736,1.041050238758113,0.5967493261135504,0.1680994075970213,0.252830829798322,0.548099257041058,0.03966412990975672,-0.04506497117407397,0.1816517723165776,0.1632791770893105,792.5641025641025,792.5641025641025,800.2197802197802,817.5457875457876,821.1721611721612,-0.196716,0.080505,0.966675,-1.465454,-3.529053,13.241425,1,1,1,1,1,100.000000
2023-09-08 13:50:46.398,1.001462685796192,0.5555429370991287,0.3299584244724255,0.9974363711194317,0.9530383089093373,0.2554059969483369,0.408079078084268,1.062719320573792,1.132497108526107,0.5383456482227763,0.30661204163171,1.032434455414133,0.7631709315941185,0.2100746398103451,0.1387865604378146,0.7350469958916848,0.5143078550577592,-0.2577128410066298,-0.01310076147399054,0.2984354874348226,790.5494505494506,796.1904761904763,794.1758241758242,821.1721611721612,865.0915750915751,-0.236938,0.188904,0.943726,-3.992615,2.086029,5.226288,1,1,1,1,1,100.000000
2023-09-08 13:50:47.398,0.7937527611633109,0.2550361272069686,0.1407185759397713,0.9902086770437727,0.7500457367940669,-0.007731956105091086,0.1543965692640817,0.8856444091273341,1.13414773392441,0.4327585507403006,0.2697546268845584,0.9795426210586875,0.8209099313379317,0.1734100225569621,0.07394100292093089,0.6889288092159539,0.6188694869509049,-0.2402801294880469,-0.1445653238116005,0.3608549849896771,788.9377289377289,792.5641025641025,788.5347985347986,827.2161172161173,903.7728937728938,-0.313904,0.079834,0.936157,12.306824,2.796326,-32.135315,1,1,1,1,1,100.000000
2023-09-08 13:50:47.750,,,,,,,,,,,,,,,,,,,,,,,,,,,,,,,,,,,,,,/muse/elements/blink
2023-09-08 13:50:48.398,0.7279286377241181,0.2950237099382167,0.4523723126379903,0.5798099645759063,0.06367298265102753,0.4812360406966808,0.2322408408619641,0.2189684993434009,0.7404270196521231,0.51180914644023,0.3957335516840619,0.5534582026106015,0.6431862263871966,0.205767531150725,0.2139381909656262,0.4656933733755405,0.4650065653381643,0.1466219198640906,-0.09480195745531017,0.3134176419306745,801.8315018315019,802.2344322344322,803.8461538461539,817.948717948718,763.956043956044,-0.527039,0.092590,0.812439,1.166382,-4.747772,-2.385101,1,1,1,1,1,100.000000
2023-09-08 13:50:49.398,0.6917244531502016,0.6434234623437429,0.4538942460009197,0.5935796473708107,0.02613164945651571,0.4703294646425822,0.3776305188938409,0.1794882384647304,0.7275969886096513,0.4830466140200423,0.3964594651735369,0.4973566823980173,0.5734265409361914,0.3212053975283358,0.2975999681513394,0.4225643533199093,0.4435632044848161,0.2266616993144729,0.06786731137354576,0.2657370700554499,800.2197802197802,799.4139194139194,797.3992673992674,813.1135531135532,884.4322344322345,-0.640320,0.084961,0.746948,1.450500,-5.802002,-2.362671,1,1,1,1,1,100.000000
2023-09-08 13:50:50.398,0.5325231804538787,0.5263892953685735,0.3432929296119905,0.6444665165828651,-0.08481741353523935,0.1034242587056391,0.2129692134765844,0.5829709479398193,0.4204165540910518,0.04375604822173037,0.2344477538736082,0.8498989444765963,0.3795886064460876,0.2568250107843739,0.2287791103351938,0.4263800559405911,0.04490667148497825,0.1014916577168775,0.2099327833360144,-0.04252984837367484,803.8461538461539,796.996336996337,793.3699633699634,823.992673992674,871.5384615384615,-0.270325,0.072693,0.957031,-4.112244,-12.867584,-9.428253,1,1,1,1,1,100.000000
2023-09-08 13:50:51.398,0.5629107915207853,0.1474076860938802,0.2112869138385021,0.7492323055142397,0.09191841265791387,0.06359741934944967,0.001242921273822709,0.5154067029111223,0.4626242598797015,0.05364282215689414,0.3796783761968687,0.6930021165410213,0.5021259996304218,0.2364714699845735,0.2062123017567147,0.5721590082642557,0.1849128065619704,0.1023702806286524,0.2332258338662639,0.1099231575863579,792.5641025641025,784.9084249084249,796.996336996337,807.8754578754579,516.5567765567765,-0.219604,0.068115,0.953735,4.710388,-7.095490,-5.652466,1,1,1,1,1,100.000000
2023-09-08 13:50:52.270,,,,,,,,,,,,,,,,,,,,,,,,,,,,,,,,,,,,,,/muse/elements/blink
2023-09-08 13:50:52.398,0.9817342004017233,0.5574936043147721,0.5137441691968245,0.1946894477729685,0.5836046368471918,0.4397316176785792,0.1653589329025339,0.2053752563210316,0.2499510329158988,0.4095803825880922,0.4145937131904846,0.3882519388265124,0.4722441656367002,-0.05868977472092699,0.05431485754926807,0.2792822381361917,0.08192828770386711,-0.1242673082798,-0.1885487131336262,0.1420635687122596,816.3369963369963,827.2161172161173,774.0293040293041,808.6813186813187,740.1831501831502,0.054077,0.253601,0.954956,8.605804,-32.030640,-87.919769,1,1,1,1,1,100.000000
2023-09-08 13:50:53.144,,,,,,,,,,,,,,,,,,,,,,,,,,,,,,,,,,,,,,/muse/elements/blink
2023-09-08 13:50:53.340,,,,,,,,,,,,,,,,,,,,,,,,,,,,,,,,,,,,,,/muse/elements/blink
2023-09-08 13:50:53.398,0.9817342004017233,0.9399620549165124,0.8652035525269706,0.1946894477729685,0.5836046368471918,0.7968750922600144,0.4821724773887399,0.2053752563210316,0.2499510329158988,0.405798327744324,0.2680551253914892,0.3882519388265124,0.4722441656367002,-0.1329865754596476,-0.2039273315541094,0.2792822381361917,0.08192828770386711,-0.4038575449226788,-0.467913352545211,0.1420635687122596,782.893772893773,787.3260073260074,799.8168498168499,803.4432234432235,871.1355311355312,0.046814,-0.119080,0.942749,8.830109,-22.250977,131.569366,1,1,1,1,1,100.000000
2023-09-08 13:50:54.398,0.9817342004017233,1.056100033871776,0.8652035525269706,0.1946894477729685,0.5836046368471918,1.040842255319884,0.4821724773887399,0.2053752563210316,0.2499510329158988,0.9364590688990824,0.2680551253914892,0.3882519388265124,0.4722441656367002,0.6049615298801397,-0.2039273315541094,0.2792822381361917,0.08192828770386711,0.3291742946717004,-0.467913352545211,0.1420635687122596,803.040293040293,794.5787545787546,790.1465201465202,779.2673992673992,794.5787545787546,0.129639,-0.039917,1.004211,9.981537,6.153412,-16.254578,1,1,1,1,1,100.000000
2023-09-08 13:50:54.975,,,,,,,,,,,,,,,,,,,,,,,,,,,,,,,,,,,,,,/muse/elements/blink
2023-09-08 13:50:55.398,0.9817342004017233,0.9732491823024212,0.9313790368465272,0.1946894477729685,0.5836046368471918,0.7099616251013207,0.29566838402395,0.2053752563210316,0.2499510329158988,0.8957568178790108,0.5932721614702643,0.3882519388265124,0.4722441656367002,0.4235607821441845,0.4147378515155372,0.2792822381361917,0.08192828770386711,0.08471804369228363,0.2623587385071665,0.1420635687122596,794.1758241758242,799.8168498168499,797.8021978021978,782.0879120879121,681.7582417582418,-0.046997,0.113464,0.970215,-2.699127,-0.919647,-8.374023,1,2,1,1,2,100.000000
2023-09-08 13:50:55.758,,,,,,,,,,,,,,,,,,,,,,,,,,,,,,,,,,,,,,/muse/elements/blink
2023-09-08 13:50:56.398,0.9817342004017233,1.234894163779212,1.199414717268284,0.1946894477729685,0.5836046368471918,0.5796793981009736,0.2784690891044557,0.2053752563210316,0.2499510329158988,0.5078021122699661,0.498714775045193,0.3882519388265124,0.4722441656367002,0.3577777732220879,0.3792796828563716,0.2792822381361917,0.08192828770386711,0.1929643810949787,0.2795974575512087,0.1420635687122596,806.6666666666667,791.3553113553114,784.1025641025641,771.6117216117216,794.5787545787546,0.149353,0.124268,0.969299,7.880554,-10.153503,11.589050,1,2,1,1,2,100.000000
2023-09-08 13:50:57.398,0.9817342004017233,0.9827373452102863,1.199414717268284,0.1946894477729685,0.5836046368471918,0.494550100469412,0.2784690891044557,0.2053752563210316,0.2499510329158988,0.7982290944839883,0.498714775045193,0.3882519388265124,0.4722441656367002,0.3548459041616864,0.3792796828563716,0.2792822381361917,0.08192828770386711,0.2544006847508636,0.2795974575512087,0.1420635687122596,752.6739926739926,887.2527472527473,793.3699633699634,703.919413919414,456.923076923077,0.025208,0.379639,0.888062,47.769318,-47.821655,-181.237793,1,2,1,1,2,100.000000
2023-09-08 13:50:57.493,,,,,,,,,,,,,,,,,,,,,,,,,,,,,,,,,,,,,,/muse/elements/blink
2023-09-08 13:50:58.398,0.9817342004017233,0.491599318402616,0.6266591667422873,0.1946894477729685,0.5836046368471918,0.283741902630386,0.05915496408772446,0.2053752563210316,0.2499510329158988,0.6939956782524894,0.2124870512861001,0.3882519388265124,0.4722441656367002,0.1533937435698615,0.4332195127942414,0.2792822381361917,0.08192828770386711,-0.01504566949686645,0.4605176233043165,0.1420635687122596,788.9377289377289,790.952380952381,797.3992673992674,775.2380952380953,617.6923076923077,-0.165955,0.243591,0.961548,-9.360962,7.230072,-16.478882,1,2,1,1,2,100.000000
2023-09-08 13:50:59.398,0.4892970029299405,0.8831624554194971,0.5786389255362341,0.9547443471083968,0.5558040758795504,0.320096530231496,0.02316899306068331,0.4889819798538573,0.802590623762929,0.2377116082509365,0.199465407694123,0.6884508002109447,0.9669777518605081,0.06509287949673148,0.136910825459341,0.5352430714878191,0.5501573251972799,0.04264416190516838,-0.1766250827674935,0.2024443413782925,791.3553113553114,792.1611721611722,786.9230769230769,772.4175824175825,684.5787545787546,-0.133484,0.131104,0.973328,-4.665527,3.962708,1.704712,1,1,1,1,1,100.000000
2023-09-08 13:51:00.397,0.6572488682195037,0.7711854325301736,0.3928319452865704,0.8582852118966989,0.503472721667012,0.3164913607956313,0.07732562166687321,0.3958813111484221,0.8239510013249255,0.3616034600125261,0.4170913572728905,0.7677981479059084,0.6984288489110394,0.2033980357568837,0.3649774175469874,0.6064155462664158,0.2861568761788839,-0.01051001169838368,0.1244984216698504,0.1130720577530131,783.2967032967033,790.1465201465202,811.5018315018315,754.6886446886447,744.6153846153846,-0.130371,0.153809,0.958130,-4.373932,-10.990906,9.846954,1,1,1,1,1,100.000000
2023-09-08 13:51:01.405,0.5432579346651875,0.6773539841109171,0.5023080627054556,0.4832074904709479,0.6412241055844118,0.5003742768477709,0.2594356526770807,0.5060130303802388,0.5181599701742593,0.3271661949614351,0.3889047417123547,0.5033107514512972,0.4257436096715894,0.1300646861396742,0.1280388838111534,0.481190316885905,-0.04586733553508911,-0.2349230311404497,-0.2052012052045732,0.06728443166990143,801.4285714285714,794.981684981685,795.3846153846154,788.5347985347986,737.3626373626374,-0.164185,0.158325,0.972839,-2.265472,5.899200,-7.940369,1,1,1,1,1,100.000000
2023-09-08 13:51:02.398,0.357302738994442,-0.05301865439248794,0.1199500826458901,0.2882188647329842,0.406860825406752,0.00977096443035818,0.002273416127185046,0.4632753302468528,0.7635790382445091,0.168118169041506,0.2722827913069243,0.6925442593195326,0.4036992438025307,-0.008371662408546471,-0.08146838335636289,0.4124370342231888,-0.06213566553646242,-0.3052028429006126,-0.3979268865123643,-0.1067189053604973,748.6446886446887,786.5201465201466,794.5787545787546,734.9450549450549,734.5421245421246,-0.031372,0.086243,0.982849,-3.910370,-1.353302,2.803802,1,1,1,1,1,100.000000
2023-09-08 13:51:02.607,,,,,,,,,,,,,,,,,,,,,,,,,,,,,,,,,,,,,,/muse/elements/blink
2023-09-08 13:51:03.398,0.3991231952335303,0.02053441994878972,-0.1336855056901913,0.1604556287341977,0.2542206978551095,-0.197425279939724,-0.397317827098372,0.3950148923970658,0.6215593441256101,0.06556497928785943,0.08608745146228323,0.6054874615369985,0.3550917808523882,-0.06464397319658771,-0.02818077217020278,0.4862630377589731,-0.09482774754807084,-0.4900269546145956,-0.3122353198676908,0.005283287103491388,783.2967032967033,788.1318681318681,790.1465201465202,768.3882783882784,763.5531135531136,-0.105042,0.071716,0.976501,-0.403748,-0.411224,-2.901001,1,1,1,1,1,100.000000
2023-09-08 13:51:04.398,0.9570998393680481,0.6889354224611809,0.3884392093930708,0.1790212468254389,0.8332032303646311,0.2681830454043329,0.02921770416063419,0.4086704002524885,0.449558473086637,0.2546992407687819,0.07447426375812323,0.5271062232034015,0.5051981170863945,-0.0752154930415174,-0.08206447677412509,0.4521831584046217,0.1090554069472016,-0.596319193833712,-0.3800263911701652,0.02926177786866145,806.6666666666667,792.5641025641025,794.981684981685,795.3846153846154,767.985347985348,-0.214294,0.049377,0.949219,6.504822,7.274933,12.441406,1,1,1,1,1,100.000000
2023-09-08 13:51:05.405,0.7403560915360904,0.8132998514121024,0.5428793296437049,0.8033945857310794,0.6756893929943762,0.3240721708534264,0.1991392526784203,0.2190422579273766,0.7267236174922036,0.3571276718098461,0.1326601434212272,0.345086568439682,0.5519673637708098,-0.06389187942996231,0.03126664232989888,0.6069263853333403,-0.04263944348613122,-0.3693901632114157,-0.526095758409466,-0.0240968483356338,769.5970695970697,780.8791208791209,788.1318681318681,755.0915750915751,548.3882783882784,-0.310181,0.231262,0.893066,12.478790,12.875061,9.510498,1,1,1,1,1,100.000000
2023-09-08 13:51:05.747,,,,,,,,,,,,,,,,,,,,,,,,,,,,,,,,,,,,,,/muse/elements/jaw_clench
2023-09-08 13:51:05.943,,,,,,,,,,,,,,,,,,,,,,,,,,,,,,,,,,,,,,/muse/elements/blink
2023-09-08 13:51:06.271,,,,,,,,,,,,,,,,,,,,,,,,,,,,,,,,,,,,,,/muse/elements/blink
2023-09-08 13:51:06.398,0.8092814823444998,0.511397230483171,0.1570668479348175,0.9647961023312381,0.6142993058474094,-0.3154815808141458,0.206905405465317,0.1807944126956067,0.872588873358453,-0.008428684097979177,0.03030380710122127,0.5911294217800805,0.7091017067036626,0.05060254055231794,0.05239094275969979,0.5679514994158197,-0.1006730151981348,-0.2318699703382423,-0.3849437906592156,-0.03190933750299352,844.1391941391942,828.021978021978,797.8021978021978,796.5934065934066,723.6630036630037,-0.161255,0.132935,0.957275,-10.886230,-32.554016,55.948944,1,1,1,1,1,100.000000
2023-09-08 13:51:07.398,0.7463901866798245,0.5676174674949565,0.3209714843605722,1.015882506438232,0.4567817346003598,-0.3308632031984804,0.3056254469220456,0.1716766550891777,0.7238086128056377,-0.4168463631231715,-0.1851254165581708,0.5413153723001797,0.7444815634515914,0.2058779460620743,-0.04562556626666161,0.4587909639390381,-0.03252666798978022,-0.3189625393303035,-0.3250295299297065,-0.09565785728911076,811.9047619047619,790.5494505494506,794.1758241758242,756.7032967032967,708.7545787545788,0.241638,0.192200,0.932007,-5.996399,-5.944061,-5.069275,1,1,1,1,1,100.000000
2023-09-08 13:51:08.190,,,,,,,,,,,,,,,,,,,,,,,,,,,,,,,,,,,,,,/muse/elements/blink
2023-09-08 13:51:08.400,0.7463901866798245,0.5676174674949565,0.6507356868845119,1.015882506438232,0.4567817346003598,-0.3308632031984804,0.1998895266742415,0.1716766550891777,0.7238086128056377,-0.4168463631231715,0.7587358485021323,0.5413153723001797,0.7444815634515914,0.2058779460620743,0.6456362087777281,0.4587909639390381,-0.03252666798978022,-0.3189625393303035,0.3809879817446537,-0.09565785728911076,821.978021978022,816.7399267399268,804.6520146520147,787.7289377289378,636.2271062271062,-0.014465,0.388184,0.898743,-11.850739,-3.080444,-24.037933,1,2,1,1,2,100.000000
2023-09-08 13:51:09.398,0.7463901866798245,0.5676174674949565,0.4874613499550448,1.015882506438232,0.4567817346003598,-0.3308632031984804,0.09981451518663613,0.1716766550891777,0.7238086128056377,-0.4168463631231715,0.5477718848443293,0.5413153723001797,0.7444815634515914,0.2058779460620743,0.4010049018986462,0.4587909639390381,-0.03252666798978022,-0.3189625393303035,0.03289564444096613,-0.09565785728911076,787.7289377289378,780.4761904761905,791.7582417582418,786.9230769230769,757.5091575091575,-0.157654,0.189819,0.958374,0.485992,5.398254,24.778137,1,2,1,1,2,100.000000
2023-09-08 13:51:10.402,0.7463901866798245,0.7306628322187702,0.06893710564841214,0.7924766993443436,0.4567817346003598,0.02502159464240581,-0.02841418698092017,0.3147721871761667,0.7238086128056377,0.714635458740476,0.328021728722559,0.7384913926321777,0.7444815634515914,0.2705009670690626,0.224232126695134,0.5828726165547916,-0.03252666798978022,0.07785527338239616,0.1390884334117443,0.2352353898453064,779.6703296703297,792.1611721611722,792.1611721611722,770.8058608058608,842.5274725274726,-0.078979,0.252014,0.924377,-3.476715,-3.940277,-8.800201,1,1,1,1,1,100.000000
2023-09-08 13:51:11.397,0.2125582142449193,0.2420081072827586,0.08998178272608404,0.467555636523539,0.3513256293291045,0.08613874749402754,-0.06480882753650519,0.0567578481154648,0.8660519722218156,0.2063390937830339,0.3048625136856004,0.8250919369931976,0.8736875990856701,0.1110706514051496,-0.0577826174265365,0.510064502941607,0.3833557862835236,-0.1488605306086516,-0.1487309224909051,0.1814715238842054,805.0549450549451,797.8021978021978,796.1904761904763,768.3882783882784,626.959706959707,-0.087708,0.284546,0.934326,7.431946,-0.927124,7.394562,1,1,1,1,1,100.000000
2023-09-08 13:51:12.398,0.166624354388849,-0.03630747071938236,0.04849348871205988,0.4568104212032566,0.2700758245544713,0.1393459940924879,-0.1764291692071606,0.1920040827719199,0.4096200656152258,-0.0246207691141644,0.4120957900848707,0.8393600146648319,0.5596215707933305,-0.1348978334596571,-0.2161344627475576,0.5309977762471104,0.08156945950806274,-0.4195639964320169,-0.5633911847654925,0.05211016772579045,793.3699633699634,793.3699633699634,792.5641025641025,784.5054945054945,662.014652014652,-0.059875,0.361267,0.924072,4.284210,-4.530945,-2.220612,1,1,1,1,1,100.000000
2023-09-08 13:51:13.075,,,,,,,,,,,,,,,,,,,,,,,,,,,,,,,,,,,,,,/muse/elements/blink
2023-09-08 13:51:13.398,0.3960825668522999,0.125779659274992,-0.07461924150406604,0.5332256561653961,0.445579452492673,0.156333180726433,-0.0967080878660377,0.406195284337321,0.3826340257859069,0.1483918842020864,0.4305860652790158,0.7933978332545436,0.5371330485152357,-0.05834202211384319,-0.140852631969236,0.4065622469780765,0.04218903013394243,-0.6262219167505888,-0.4629285270348194,0.06725771709977056,800.6227106227107,792.967032967033,796.5934065934066,798.6080586080586,693.4432234432235,-0.060181,0.362000,0.904480,2.033691,-5.069275,-2.684174,1,1,1,1,1,100.000000
2023-09-08 13:51:14.397,0.260283407457275,0.1936766688811148,-0.1881406270793415,0.4328699454023291,0.5543894884951063,0.3167786241198566,-0.01724415044037803,0.2937076122709268,0.3149696055690748,0.1489765645650592,0.05236080667177897,0.586057596407653,0.3046145607248954,-0.1193129732371495,-0.2911709471061729,0.4310941594076681,-0.2398385322950371,-0.5570375402749412,-0.555819192324657,-0.03259165415807935,793.3699633699634,799.4139194139194,792.5641025641025,782.4908424908425,677.3260073260074,-0.040649,0.359375,0.924011,0.157013,-8.860016,2.729034,1,1,1,1,1,100.000000
2023-09-08 13:51:15.398,0.390882304674892,-0.08446342801275689,0.09317575310444255,0.3136510920916014,0.4926791652966239,-0.04242625726168409,-0.04524536022176093,0.760506004992658,0.4995178344313525,0.04839941097462063,0.6473113472775356,0.4444775598945985,0.5376469926211201,0.02677607969673076,0.3241859682454485,0.721821941135485,0.2682281544607764,-0.1094514771757144,0.2838252833163077,0.5643700883449833,819.5604395604396,792.5641025641025,796.5934065934066,785.3113553113553,790.952380952381,-0.059021,0.374512,0.887634,2.886047,-0.269165,4.112244,1,1,1,1,1,100.000000
2023-09-08 13:51:15.794,,,,,,,,,,,,,,,,,,,,,,,,,,,,,,,,,,,,,,/muse/elements/blink
2023-09-08 13:51:16.398,0.2084481906406336,0.6879655205012216,0.1346127305144789,0.2967231728442999,0.144617080958682,0.2753625478438176,0.0588652136942028,0.4354861970419577,0.4779041673862137,0.3523223399740165,0.6073322523016847,0.4652945963404743,0.739237037797466,0.7457945234602726,1.046870030392173,0.9179660390641953,0.5358702019708003,0.6921447282638395,0.8301807549034949,0.8190193091653377,683.3699633699634,860.6593406593407,861.4652014652015,709.1575091575091,780.8791208791209,-0.259155,0.275024,0.916748,-3.805695,24.957581,-5.316010,1,1,1,1,1,100.000000
2023-09-08 13:51:16.645,,,,,,,,,,,,,,,,,,,,,,,,,,,,,,,,,,,,,,/muse/elements/blink
2023-09-08 13:51:17.235,,,,,,,,,,,,,,,,,,,,,,,,,,,,,,,,,,,,,,/muse/elements/blink
2023-09-08 13:51:17.403,0.2047544263721062,0.6879655205012216,-0.1654430877163471,0.2213073796995348,-0.04908549098883278,0.2753625478438176,0.1101412664135571,0.07585077097431574,0.4499746711817159,0.3523223399740165,0.3009171937406944,0.2199009700599673,0.6982938390551321,0.7457945234602726,0.9502448613670486,0.8669701178475737,0.4932495431156139,0.6921447282638395,0.5863368121613487,0.7780472606068836,797.3992673992674,773.2234432234433,805.8608058608058,776.4468864468864,709.9633699633699,-0.768677,0.114502,0.631042,4.702911,6.893616,-13.084412,1,1,1,1,1,100.000000
2023-09-08 13:51:17.714,,,,,,,,,,,,,,,,,,,,,,,,,,,,,,,,,,,,,,/muse/elements/jaw_clench
2023-09-08 13:51:17.845,,,,,,,,,,,,,,,,,,,,,,,,,,,,,,,,,,,,,,/muse/elements/blink
2023-09-08 13:51:18.400,0.2047544263721062,0.7815432651527955,-0.2285016745386565,0.2213073796995348,-0.04908549098883278,0.2830862551325992,0.1478706342228697,0.07585077097431574,0.4499746711817159,0.1838280511571795,0.2051789457531066,0.2199009700599673,0.6982938390551321,0.7429888115534858,0.8373463182036754,0.8669701178475737,0.4932495431156139,0.6039611842940742,0.5441206301871485,0.7780472606068836,790.1465201465202,793.3699633699634,793.3699633699634,792.1611721611722,731.7216117216118,-0.501404,0.034180,0.866577,2.272949,-5.869293,5.674896,1,2,1,1,2,100.000000
2023-09-08 13:51:19.349,,,,,,,,,,,,,,,,,,,,,,,,,,,,,,,,,,,,,,/muse/elements/jaw_clench
2023-09-08 13:51:19.404,0.2047544263721062,0.7815432651527955,-0.2285016745386565,0.2213073796995348,-0.04908549098883278,0.2830862551325992,0.1478706342228697,0.07585077097431574,0.4499746711817159,0.1838280511571795,0.2051789457531066,0.2199009700599673,0.6982938390551321,0.7429888115534858,0.8373463182036754,0.8669701178475737,0.4932495431156139,0.6039611842940742,0.5441206301871485,0.7780472606068836,820.3663003663004,800.2197802197802,809.4871794871796,798.2051282051282,822.7838827838829,-0.519775,0.088928,0.809509,-3.902893,11.716156,15.566711,1,2,1,1,2,100.000000
2023-09-08 13:51:19.676,,,,,,,,,,,,,,,,,,,,,,,,,,,,,,,,,,,,,,/muse/elements/jaw_clench
2023-09-08 13:51:20.132,,,,,,,,,,,,,,,,,,,,,,,,,,,,,,,,,,,,,,/muse/elements/jaw_clench
2023-09-08 13:51:20.397,0.2047544263721062,0.7815432651527955,-0.2285016745386565,0.674634754349332,-0.04908549098883278,0.2830862551325992,0.1478706342228697,0.7728926209922667,0.4499746711817159,0.1838280511571795,0.2051789457531066,1.189939038120695,0.6982938390551321,0.7429888115534858,0.8373463182036754,1.045887499621715,0.4932495431156139,0.6039611842940742,0.5441206301871485,0.8446764033345368,797.8021978021978,787.3260073260074,758.7179487179487,758.7179487179487,653.5531135531136,-0.677002,0.167664,0.682861,4.224396,-1.300964,-3.244934,1,1,1,1,1,100.000000
2023-09-08 13:51:20.567,,,,,,,,,,,,,,,,,,,,,,,,,,,,,,,,,,,,,,/muse/elements/jaw_clench
2023-09-08 13:51:20.655,,,,,,,,,,,,,,,,,,,,,,,,,,,,,,,,,,,,,,/muse/elements/blink
2023-09-08 13:51:21.179,,,,,,,,,,,,,,,,,,,,,,,,,,,,,,,,,,,,,,/muse/elements/blink
2023-09-08 13:51:21.397,0.2047544263721062,0.7815432651527955,-0.2285016745386565,0.8703763364564514,-0.04908549098883278,0.2830862551325992,0.1478706342228697,0.7877343481814006,0.4499746711817159,0.1838280511571795,0.2051789457531066,0.7937444755734921,0.6982938390551321,0.7429888115534858,0.8373463182036754,1.098714188994477,0.4932495431156139,0.6039611842940742,0.5441206301871485,0.839326533269125,810.6959706959707,785.3113553113553,815.1282051282052,803.8461538461539,779.6703296703297,-0.786865,0.209595,0.561279,0.605621,-5.211334,0.456085,1,1,1,1,1,100.000000
2023-09-08 13:51:21.702,,,,,,,,,,,,,,,,,,,,,,,,,,,,,,,,,,,,,,/muse/elements/jaw_clench
2023-09-08 13:51:22.397,0.2047544263721062,0.7815432651527955,-0.2285016745386565,0.8886489784747642,-0.04908549098883278,0.2830862551325992,0.1478706342228697,0.538326202507932,0.4499746711817159,0.1838280511571795,0.2051789457531066,0.572149252396967,0.6982938390551321,0.7429888115534858,0.8373463182036754,1.092697660758004,0.4932495431156139,0.6039611842940742,0.5441206301871485,0.7433251714853796,830.4395604395604,776.4468864468864,804.6520146520147,821.1721611721612,749.4505494505495,-0.779175,0.189697,0.720947,-0.508423,-49.115143,-3.843079,1,1,1,1,1,100.000000
2023-09-08 13:51:23.398,0.2047544263721062,0.7815432651527955,-0.2285016745386565,0.8886489784747642,-0.04908549098883278,0.2830862551325992,0.1478706342228697,0.538326202507932,0.4499746711817159,0.1838280511571795,0.2051789457531066,0.572149252396967,0.6982938390551321,0.7429888115534858,0.8373463182036754,1.092697660758004,0.4932495431156139,0.6039611842940742,0.5441206301871485,0.7433251714853796,806.6666666666667,786.1172161172161,813.919413919414,803.4432234432235,668.8644688644689,-0.075745,0.144226,0.981018,-2.818756,-3.977661,17.308807,1,2,1,1,2,100.000000
2023-09-08 13:51:24.397,0.6407527546343393,0.8743254464757023,0.6534347226861968,0.4128761084909209,0.3068889305992027,0.3858737848180348,0.3301391566733039,0.5335533662348642,0.4773804113372642,0.4888788621876944,0.5280818784234361,0.4713433091642334,0.8191548601610507,0.4769166577287521,0.5372678239766289,0.6369048792534079,0.1638103886085117,0.3576684624753742,0.4866532171959562,0.5014759535702972,787.3260073260074,807.8754578754579,799.8168498168499,786.1172161172161,711.1721611721612,-0.146851,0.223816,0.957458,12.127380,7.678680,-26.729584,1,1,1,1,1,100.000000
2023-09-08 13:51:24.749,,,,,,,,,,,,,,,,,,,,,,,,,,,,,,,,,,,,,,/muse/elements/blink
2023-09-08 13:51:25.397,0.7559665085733387,1.021791458335532,0.9316333491755335,0.4168162029001631,0.5305068638763902,0.603723815616389,0.5075443500337067,0.5898485221658077,0.5274739525531499,0.4979271987968747,0.5487750380218457,0.5236092062931214,0.7880102436973676,0.418367374875861,0.415593959496623,0.5892555616382434,0.1854930495889848,0.2833547427717426,0.2685442570233752,0.383305690316852,796.1904761904763,800.2197802197802,796.1904761904763,790.5494505494506,660.8058608058608,-0.145325,0.624573,0.894104,19.207916,-22.400513,24.411774,1,1,1,1,1,100.000000
2023-09-08 13:51:25.758,,,,,,,,,,,,,,,,,,,,,,,,,,,,,,,,,,,,,,/muse/elements/blink
2023-09-08 13:51:26.397,0.7770967932510213,1.119907016828675,0.8518088563069832,0.4889165747596267,0.6020477662344885,0.7126933037268975,0.5229391812716033,0.6857025138963051,0.4730846216163914,0.3944384426641763,0.7135276575272935,0.4283651239024543,0.7881051119334324,0.3287228880902628,0.3855941450113826,0.5537314781187659,0.1627193459643728,0.1191023555282365,0.3552632846977969,0.3771552800633761,789.7435897435897,796.5934065934066,794.5787545787546,791.3553113553114,642.6739926739926,-0.027588,0.347839,0.912964,2.093506,0.852356,-1.846771,1,1,1,1,1,100.000000
