TimeStamp,Delta_TP9,Delta_AF7,Delta_AF8,Delta_TP10,Theta_TP9,Theta_AF7,Theta_AF8,Theta_TP10,Alpha_TP9,Alpha_AF7,Alpha_AF8,Alpha_TP10,Beta_TP9,Beta_AF7,Beta_AF8,Beta_TP10,Gamma_TP9,Gamma_AF7,Gamma_AF8,Gamma_TP10,RAW_TP9,RAW_AF7,RAW_AF8,RAW_TP10,AUX_RIGHT,Accelerometer_X,Accelerometer_Y,Accelerometer_Z,Gyro_X,Gyro_Y,Gyro_Z,HeadBandOn,HSI_TP9,HSI_AF7,HSI_AF8,HSI_TP10,Battery,Elements
2023-08-23 18:45:31.866,,,,,,,,,,,,,,,,,,,,,,,,,,,,,,,,,,,,,,/muse/event/connected Muse-D424
2023-08-23 18:45:32.651,,,,,,,,,,,,,,,,,,,,,,,,,,,,,,,,,,,,,,/muse/elements/blink
2023-08-23 18:45:32.651,,,,,,,,,,,,,,,,,,,,,,,,,,,,,,,,,,,,,,/muse/elements/jaw_clench
2023-08-23 18:45:32.836,,,,,,,,,,,,,,,,,,,,,,,,,,,,,,,,,,,,,,/muse/elements/blink
2023-08-23 18:45:32.870,1.127031797117632,0.5638148864799228,0.9229641081432516,1.096416258008121,0.8047852093191626,0.3117564042955637,0.1137626772234742,1.01693470976174,0.8161344311417602,0.3492677808412704,-0.3221187918394778,0.7895602964442376,0.648379351366464,0.8962549357751182,0.002961378036847848,0.7639759153820056,0.2984008223309195,0.9562343449326243,-0.1776188639080349,0.309247426851361,711.1721611721612,609.6336996336996,589.8901098901099,662.8205128205128,780.0732600732601,-0.175354,0.200867,0.942322,14.916229,30.049286,-21.129456,1,1,1,1,1,100.000000
2023-08-23 18:45:33.130,,,,,,,,,,,,,,,,,,,,,,,,,,,,,,,,,,,,,,/muse/elements/blink
2023-08-23 18:45:33.867,1.154051520150606,0.5638148864799228,0.9229641081432516,1.275723531551812,1.102308199064005,0.3117564042955637,0.1137626772234742,1.342842889962825,0.8161344311417602,0.3492677808412704,-0.3221187918394778,0.7705711603492983,0.7318764807051407,0.8962549357751182,0.002961378036847848,0.8170981602027921,0.2420926405015839,0.9562343449326243,-0.1776188639080349,0.4226408505834994,803.040293040293,857.032967032967,805.0549450549451,784.9084249084249,896.5201465201466,-0.785583,0.124939,0.598755,6.616974,9.017029,-9.929199,1,1,1,1,1,100.000000
2023-08-23 18:45:34.872,1.154051520150606,0.5638148864799228,0.9229641081432516,1.275723531551812,1.102308199064005,0.3117564042955637,0.1137626772234742,1.342842889962825,0.8161344311417602,0.3492677808412704,-0.3221187918394778,0.7705711603492983,0.7318764807051407,0.8962549357751182,0.002961378036847848,0.8170981602027921,0.2420926405015839,0.9562343449326243,-0.1776188639080349,0.4226408505834994,765.9706959706959,753.8827838827839,814.7252747252747,759.92673992674,773.2234432234433,-0.771790,0.093445,0.620972,0.515900,-9.585266,-1.188812,1,1,1,1,1,100.000000
2023-08-23 18:45:35.868,1.154051520150606,0.5638148864799228,0.9229641081432516,1.275723531551812,1.102308199064005,0.3117564042955637,0.1137626772234742,1.342842889962825,0.8161344311417602,0.3492677808412704,-0.3221187918394778,0.7705711603492983,0.7318764807051407,0.8962549357751182,0.002961378036847848,0.8170981602027921,0.2420926405015839,0.9562343449326243,-0.1776188639080349,0.4226408505834994,741.7948717948718,766.7765567765568,741.7948717948718,747.032967032967,697.0695970695971,-0.561646,0.088745,0.823242,0.104675,-30.744629,8.015137,1,2,1,1,2,100.000000
2023-08-23 18:45:35.903,,,,,,,,,,,,,,,,,,,,,,,,,,,,,,,,,,,,,,/muse/elements/blink
2023-08-23 18:45:36.321,,,,,,,,,,,,,,,,,,,,,,,,,,,,,,,,,,,,,,/muse/elements/blink
2023-08-23 18:45:36.321,,,,,,,,,,,,,,,,,,,,,,,,,,,,,,,,,,,,,,/muse/elements/jaw_clench
2023-08-23 18:45:36.793,,,,,,,,,,,,,,,,,,,,,,,,,,,,,,,,,,,,,,/muse/elements/blink
2023-08-23 18:45:36.867,1.203197227804264,0.5638148864799228,0.9229641081432516,1.202122674758118,1.4095782954729,0.3117564042955637,0.1137626772234742,1.394718649058686,1.126862449790502,0.3492677808412704,-0.3221187918394778,0.7678759989022081,1.027872402206632,0.8962549357751182,0.002961378036847848,0.7012269792696382,0.9463332089337329,0.9562343449326243,-0.1776188639080349,0.6402360761168595,705.5311355311355,702.3076923076924,26.996336996337,713.1868131868132,926.3369963369963,-0.119568,0.027710,0.969055,-18.026581,-38.049469,53.892822,1,1,1,4,1,100.000000
2023-08-23 18:45:37.038,,,,,,,,,,,,,,,,,,,,,,,,,,,,,,,,,,,,,,/muse/elements/blink
2023-08-23 18:45:37.871,1.26712578486569,0.5638148864799228,0.9229641081432516,1.202122674758118,1.495262812382765,0.3117564042955637,0.1137626772234742,1.394718649058686,1.09714012565428,0.3492677808412704,-0.3221187918394778,0.7678759989022081,1.104965214003946,0.8962549357751182,0.002961378036847848,0.7012269792696382,0.9507349407297474,0.9562343449326243,-0.1776188639080349,0.6402360761168595,724.4688644688645,672.0879120879121,664.8351648351648,680.952380952381,721.6483516483516,0.068848,-0.011353,0.970154,-9.817047,-14.617157,6.437531,1,1,1,2,1,100.000000
2023-08-23 18:45:38.866,1.26712578486569,0.5638148864799228,0.9229641081432516,1.202122674758118,1.495262812382765,0.3117564042955637,0.1137626772234742,1.394718649058686,1.09714012565428,0.3492677808412704,-0.3221187918394778,0.7678759989022081,1.104965214003946,0.8962549357751182,0.002961378036847848,0.7012269792696382,0.9507349407297474,0.9562343449326243,-0.1776188639080349,0.6402360761168595,774.4322344322345,726.0805860805862,728.4981684981685,734.5421245421246,746.2271062271062,-0.157959,0.127747,0.961731,8.942261,6.474915,-2.228088,1,1,1,2,1,100.000000
2023-08-23 18:45:38.943,,,,,,,,,,,,,,,,,,,,,,,,,,,,,,,,,,,,,,/muse/elements/blink
2023-08-23 18:45:39.231,,,,,,,,,,,,,,,,,,,,,,,,,,,,,,,,,,,,,,/muse/elements/blink
2023-08-23 18:45:39.365,,,,,,,,,,,,,,,,,,,,,,,,,,,,,,,,,,,,,,/muse/elements/jaw_clench
2023-08-23 18:45:39.866,1.26712578486569,0.5638148864799228,0.9229641081432516,1.202122674758118,1.495262812382765,0.3117564042955637,0.1137626772234742,1.394718649058686,1.09714012565428,0.3492677808412704,-0.3221187918394778,0.7678759989022081,1.104965214003946,0.8962549357751182,0.002961378036847848,0.7012269792696382,0.9507349407297474,0.9562343449326243,-0.1776188639080349,0.6402360761168595,809.8901098901099,796.5934065934066,804.6520146520147,786.5201465201466,961.7948717948718,-0.697144,0.008606,0.732178,2.796326,-16.478882,-7.745972,1,2,1,2,2,100.000000
2023-08-23 18:45:40.866,1.26712578486569,0.5638148864799228,0.9229641081432516,1.202122674758118,1.495262812382765,0.3117564042955637,0.1137626772234742,1.394718649058686,1.09714012565428,0.3492677808412704,-0.3221187918394778,0.7678759989022081,1.104965214003946,0.8962549357751182,0.002961378036847848,0.7012269792696382,0.9507349407297474,0.9562343449326243,-0.1776188639080349,0.6402360761168595,727.2893772893773,685.3846153846154,728.901098901099,709.1575091575091,710.7692307692308,-0.613342,0.033142,0.766907,3.656158,-4.530945,4.433746,1,2,1,2,2,100.000000
2023-08-23 18:45:41.466,,,,,,,,,,,,,,,,,,,,,,,,,,,,,,,,,,,,,,/muse/elements/blink
2023-08-23 18:45:41.866,1.26712578486569,0.5638148864799228,0.9229641081432516,1.202122674758118,1.495262812382765,0.3117564042955637,0.1137626772234742,1.394718649058686,1.09714012565428,0.3492677808412704,-0.3221187918394778,0.7678759989022081,1.104965214003946,0.8962549357751182,0.002961378036847848,0.7012269792696382,0.9507349407297474,0.9562343449326243,-0.1776188639080349,0.6402360761168595,743.4065934065934,703.5164835164835,779.6703296703297,706.3369963369963,686.5934065934066,0.001465,0.054260,1.003296,4.157104,-8.067474,-9.099274,1,2,1,1,2,100.000000
2023-08-23 18:45:42.776,,,,,,,,,,,,,,,,,,,,,,,,,,,,,,,,,,,,,,/muse/elements/blink
2023-08-23 18:45:42.776,,,,,,,,,,,,,,,,,,,,,,,,,,,,,,,,,,,,,,/muse/elements/jaw_clench
2023-08-23 18:45:42.877,1.26712578486569,0.5638148864799228,0.9229641081432516,1.202122674758118,1.495262812382765,0.3117564042955637,0.1137626772234742,1.394718649058686,1.09714012565428,0.3492677808412704,-0.3221187918394778,0.7678759989022081,1.104965214003946,0.8962549357751182,0.002961378036847848,0.7012269792696382,0.9507349407297474,0.9562343449326243,-0.1776188639080349,0.6402360761168595,664.0293040293041,591.0989010989011,866.7032967032967,668.8644688644689,680.1465201465202,-0.317261,0.170288,0.947266,-5.286102,-32.763367,20.299530,1,2,1,1,2,100.000000
2023-08-23 18:45:43.022,,,,,,,,,,,,,,,,,,,,,,,,,,,,,,,,,,,,,,/muse/elements/jaw_clench
2023-08-23 18:45:43.201,,,,,,,,,,,,,,,,,,,,,,,,,,,,,,,,,,,,,,/muse/elements/blink
2023-08-23 18:45:43.866,1.26712578486569,0.5638148864799228,0.9229641081432516,1.202122674758118,1.495262812382765,0.3117564042955637,0.1137626772234742,1.394718649058686,1.09714012565428,0.3492677808412704,-0.3221187918394778,0.7678759989022081,1.104965214003946,0.8962549357751182,0.002961378036847848,0.7012269792696382,0.9507349407297474,0.9562343449326243,-0.1776188639080349,0.6402360761168595,732.5274725274726,694.2490842490843,687.3992673992674,690.2197802197802,791.7582417582418,-0.058899,0.087219,0.980286,5.330963,-6.198273,-6.691742,1,2,1,2,2,100.000000
2023-08-23 18:45:44.867,1.26712578486569,0.5638148864799228,0.9229641081432516,1.202122674758118,1.495262812382765,0.3117564042955637,0.1137626772234742,1.394718649058686,1.09714012565428,0.3492677808412704,-0.3221187918394778,0.7678759989022081,1.104965214003946,0.8962549357751182,0.002961378036847848,0.7012269792696382,0.9507349407297474,0.9562343449326243,-0.1776188639080349,0.6402360761168595,746.6300366300367,701.9047619047619,732.1245421245421,707.1428571428571,749.8534798534798,-0.057068,0.075500,0.991577,-7.678680,-4.792633,5.181427,1,2,1,1,2,100.000000
2023-08-23 18:45:45.867,1.214517490858409,0.5638148864799228,0.9229641081432516,0.9279220007552497,0.968628688226716,0.3117564042955637,0.1137626772234742,0.8264495942558148,0.6607530429734889,0.3492677808412704,-0.3221187918394778,0.6576469006862929,0.5423686696840382,0.8962549357751182,0.002961378036847848,0.6994109059641905,0.3893967661541276,0.9562343449326243,-0.1776188639080349,0.7078152649736664,780.8791208791209,754.6886446886447,762.3443223443223,754.6886446886447,798.2051282051282,-0.147461,0.088867,0.971130,-7.783356,-1.749573,-1.981354,1,1,1,1,1,100.000000
2023-08-23 18:45:46.870,1.018796412424661,0.9049718201807768,0.9229641081432516,1.040159083795944,0.8644229430820182,0.4466856067661308,0.1137626772234742,0.7297588503059543,0.7029987903250579,0.4251269517130837,-0.3221187918394778,0.8223266754419865,0.543388046640744,0.8031868259575541,0.002961378036847848,0.8117925640477611,0.275634048970617,0.8881446105216718,-0.1776188639080349,0.4961121089448789,734.9450549450549,710.7692307692308,716.007326007326,693.040293040293,745.8241758241759,-0.126038,0.074341,0.983582,2.512207,-5.069275,2.250519,1,1,1,1,1,100.000000
2023-08-23 18:45:47.867,0.8685233783387551,0.7198480025212657,0.9229641081432516,1.121072728796654,0.7393500565564965,0.1564756361781898,0.1137626772234742,0.7161876294361851,0.5826449997257664,0.4242417251051754,-0.3221187918394778,0.732005720240878,0.4695805813046977,0.7500093114778058,0.002961378036847848,0.7759105729124496,0.1543354807278684,0.7452803857976019,-0.1776188639080349,0.2624961527224617,748.2417582417582,694.6520146520147,730.1098901098901,724.4688644688645,696.6666666666667,-0.097717,0.075317,0.980957,1.981354,-4.545898,-0.358887,1,1,1,1,1,100.000000
2023-08-23 18:45:48.870,0.6703071262088051,0.7368174552725936,0.9229641081432516,0.6907115827104608,0.5827816591057418,0.00942360516718185,0.1137626772234742,0.5992608646941781,0.6824248641836996,0.3954375241591839,-0.3221187918394778,0.7626329092628558,0.4885890543863687,0.7231344441046501,0.002961378036847848,0.6035905933415566,0.1898315385546542,0.6157298131871245,-0.1776188639080349,0.1487079653133272,734.5421245421246,676.5201465201466,658.7912087912088,694.2490842490843,985.5677655677656,-0.202881,0.076660,0.952332,10.258179,6.803894,-12.433929,1,1,1,1,1,100.000000
2023-08-23 18:45:49.870,0.700129102822944,0.6039230680753186,0.9229641081432516,0.9169167107181317,0.6452455583178976,-0.04336502697728355,0.1137626772234742,1.103976229380135,0.5626941651100751,0.2873039785678503,-0.3221187918394778,0.8872703876341197,0.3810022259197891,0.8196913144469559,0.002961378036847848,0.7181150237698203,0.2217898673062641,0.6556168128963725,-0.1776188639080349,0.1693271832572356,743.4065934065934,720.8424908424909,757.9120879120879,698.2783882783883,782.4908424908425,-0.516541,0.056519,0.847229,3.768311,-5.502930,4.194489,1,1,1,1,1,100.000000
2023-08-23 18:45:50.595,,,,,,,,,,,,,,,,,,,,,,,,,,,,,,,,,,,,,,/muse/elements/blink
2023-08-23 18:45:50.871,0.7037795363712213,0.6039230680753186,0.9229641081432516,1.091680212367463,0.6107883215371159,-0.04336502697728355,0.1137626772234742,1.39377695243991,0.4600203139211771,0.2873039785678503,-0.3221187918394778,0.8814176328421461,0.3665435917882569,0.8196913144469559,0.002961378036847848,0.8804263220669211,0.2472485043366022,0.6556168128963725,-0.1776188639080349,0.1376593028554461,781.6849816849817,758.7179487179487,718.021978021978,740.5860805860806,776.4468864468864,-0.238403,0.007996,0.960022,2.370148,-21.548157,-2.751465,1,1,1,1,1,100.000000
2023-08-23 18:45:51.869,0.7037795363712213,0.6039230680753186,0.9229641081432516,1.091680212367463,0.6107883215371159,-0.04336502697728355,0.1137626772234742,1.39377695243991,0.4600203139211771,0.2873039785678503,-0.3221187918394778,0.8814176328421461,0.3665435917882569,0.8196913144469559,0.002961378036847848,0.8804263220669211,0.2472485043366022,0.6556168128963725,-0.1776188639080349,0.1376593028554461,711.1721611721612,669.2673992673992,664.8351648351648,678.1318681318681,919.4871794871796,-0.119324,0.010925,0.975830,1.876678,-10.534821,-10.228271,1,1,1,1,1,100.000000
2023-08-23 18:45:52.867,1.359796506821501,1.165756626390537,0.9229641081432516,1.173892201335872,0.6610973570794099,0.3428687306844633,0.1137626772234742,0.5863954251339143,0.3708286170159974,0.02558695472411463,-0.3221187918394778,0.6739487729733221,0.7184729093397668,0.4404882429835843,0.002961378036847848,0.7079098170713031,0.3691130669402693,0.2509443538732463,-0.1776188639080349,0.4190560324472866,773.6263736263736,783.2967032967033,718.8278388278388,768.7912087912088,751.8681318681319,-0.122559,0.031860,0.977722,0.388794,-1.577606,-2.272949,1,1,1,1,1,100.000000
2023-08-23 18:45:53.160,,,,,,,,,,,,,,,,,,,,,,,,,,,,,,,,,,,,,,/muse/elements/blink
2023-08-23 18:45:53.867,1.128590255082022,1.165756626390537,0.9229641081432516,1.043347353943064,0.6688618524471651,0.3428687306844633,0.1137626772234742,0.6490080286804014,0.2054982723078542,0.02558695472411463,-0.3221187918394778,0.5014758949547865,0.7996364020915533,0.4404882429835843,0.002961378036847848,0.5616955764164278,0.4456963592167374,0.2509443538732463,-0.1776188639080349,0.4060388386399919,758.3150183150184,705.934065934066,599.9633699633699,726.8864468864469,738.974358974359,-0.260986,0.043213,0.953796,14.624634,-3.140259,-11.731110,1,1,1,1,1,100.000000
2023-08-23 18:45:54.867,1.128590255082022,1.165756626390537,0.9229641081432516,0.9482116516250381,0.6688618524471651,0.3428687306844633,0.1137626772234742,0.5937782434274376,0.2054982723078542,0.02558695472411463,-0.3221187918394778,0.4967563159345967,0.7996364020915533,0.4404882429835843,0.002961378036847848,0.5234083021367381,0.4456963592167374,0.2509443538732463,-0.1776188639080349,0.4106217467855476,781.2820512820513,775.6410256410256,670.4761904761905,746.6300366300367,952.5274725274726,-0.421997,0.050354,0.909790,25.413666,-5.413208,-26.864166,1,1,1,1,1,100.000000
2023-08-23 18:45:55.471,,,,,,,,,,,,,,,,,,,,,,,,,,,,,,,,,,,,,,/muse/elements/blink
2023-08-23 18:45:55.872,1.128590255082022,1.165756626390537,0.9229641081432516,0.9482116516250381,0.6688618524471651,0.3428687306844633,0.1137626772234742,0.5937782434274376,0.2054982723078542,0.02558695472411463,-0.3221187918394778,0.4967563159345967,0.7996364020915533,0.4404882429835843,0.002961378036847848,0.5234083021367381,0.4456963592167374,0.2509443538732463,-0.1776188639080349,0.4106217467855476,716.4102564102565,707.1428571428571,743.8095238095239,730.1098901098901,814.7252747252747,-0.453430,0.039612,0.888062,-1.562653,-10.056305,8.426361,1,2,1,1,2,100.000000
2023-08-23 18:45:56.867,1.128590255082022,1.165756626390537,0.9229641081432516,0.9482116516250381,0.6688618524471651,0.3428687306844633,0.1137626772234742,0.5937782434274376,0.2054982723078542,0.02558695472411463,-0.3221187918394778,0.4967563159345967,0.7996364020915533,0.4404882429835843,0.002961378036847848,0.5234083021367381,0.4456963592167374,0.2509443538732463,-0.1776188639080349,0.4106217467855476,732.1245421245421,709.1575091575091,757.5091575091575,701.0989010989011,927.948717948718,-0.145325,0.020569,0.971313,1.106567,-10.288086,-6.205750,1,2,1,1,2,100.000000
2023-08-23 18:45:57.867,1.096656733494178,0.9757895379138876,0.9229641081432516,0.9482116516250381,0.7787250217453802,0.9961552766803518,0.1137626772234742,0.5937782434274376,0.9300723466354287,0.5959389356368838,-0.3221187918394778,0.4967563159345967,0.4667666909392172,0.783078539595534,0.002961378036847848,0.5234083021367381,0.3016823062862778,0.9283042484632736,-0.1776188639080349,0.4106217467855476,695.8608058608058,707.1428571428571,745.4212454212454,668.8644688644689,844.9450549450549,-0.188171,0.057068,0.979675,6.609497,0.657959,-11.446991,1,1,1,1,1,100.000000
2023-08-23 18:45:58.867,1.034189131259695,0.9757895379138876,0.9229641081432516,0.9482116516250381,0.8177608029197735,0.9961552766803518,0.1137626772234742,0.5937782434274376,0.7235422906390654,0.5959389356368838,-0.3221187918394778,0.4967563159345967,0.3385702970166604,0.783078539595534,0.002961378036847848,0.5234083021367381,0.1619398565866499,0.9283042484632736,-0.1776188639080349,0.4106217467855476,721.6483516483516,677.7289377289377,749.047619047619,684.1758241758242,694.2490842490843,-0.193176,0.136963,0.955627,3.783264,-3.813171,2.586975,1,1,1,1,1,100.000000
2023-08-23 18:45:59.867,0.787760219228523,0.9757895379138876,0.9229641081432516,0.873095690328433,0.8362259671404947,0.9961552766803518,0.1137626772234742,0.669624397904501,0.6374934479119635,0.5959389356368838,-0.3221187918394778,0.4119244684293673,0.5476408424113284,0.783078539595534,0.002961378036847848,0.5004535447638788,0.07293685069219001,0.9283042484632736,-0.1776188639080349,0.1474665534918111,730.5128205128206,688.2051282051282,702.3076923076924,707.948717948718,724.0659340659341,-0.180908,0.138916,0.958801,1.271057,-4.112244,-0.874786,1,1,1,1,1,100.000000
2023-08-23 18:46:00.775,,,,,,,,,,,,,,,,,,,,,,,,,,,,,,,,,,,,,,/muse/elements/blink
2023-08-23 18:46:00.875,1.007128218953199,0.6412067395733282,0.9229641081432516,0.898851846954933,0.977156057374597,0.2293295327235756,0.1137626772234742,0.7711774342699947,0.8303803545780427,0.4612888017199495,-0.3221187918394778,0.6480913393091128,0.5738334020472361,1.023706582008218,0.002961378036847848,0.5841737141223792,0.1667871274511299,0.7279986830303143,-0.1776188639080349,0.2224580789582207,738.1684981684982,707.5457875457876,664.8351648351648,713.1868131868132,774.8351648351648,-0.426758,-0.181213,0.867859,-20.247192,19.933167,22.527618,1,1,1,1,1,100.000000
2023-08-23 18:46:01.866,0.9378989250204516,0.6412067395733282,0.9229641081432516,0.7281112260781483,0.7292096820411113,0.2293295327235756,0.1137626772234742,0.6572300596145439,0.7884042485327183,0.4612888017199495,-0.3221187918394778,0.607451072748631,0.464437876465733,1.023706582008218,0.002961378036847848,0.6652419449774831,0.1724944142799439,0.7279986830303143,-0.1776188639080349,0.356775426734726,732.5274725274726,709.1575091575091,768.7912087912088,692.6373626373627,746.6300366300367,-0.308594,-0.022949,0.935669,10.131073,-10.093689,-17.450867,1,1,1,1,1,100.000000
2023-08-23 18:46:02.879,0.9378989250204516,0.6412067395733282,0.9229641081432516,0.7281112260781483,0.7292096820411113,0.2293295327235756,0.1137626772234742,0.6572300596145439,0.7884042485327183,0.4612888017199495,-0.3221187918394778,0.607451072748631,0.464437876465733,1.023706582008218,0.002961378036847848,0.6652419449774831,0.1724944142799439,0.7279986830303143,-0.1776188639080349,0.356775426734726,673.2967032967033,690.6227106227107,675.7142857142858,619.3040293040293,818.3516483516484,-0.211731,-0.111145,0.971863,1.577606,8.059998,15.043335,1,1,1,1,1,100.000000
2023-08-23 18:46:03.107,,,,,,,,,,,,,,,,,,,,,,,,,,,,,,,,,,,,,,/muse/elements/blink
2023-08-23 18:46:03.866,0.9378989250204516,0.6412067395733282,0.9229641081432516,0.7281112260781483,0.7292096820411113,0.2293295327235756,0.1137626772234742,0.6572300596145439,0.7884042485327183,0.4612888017199495,-0.3221187918394778,0.607451072748631,0.464437876465733,1.023706582008218,0.002961378036847848,0.6652419449774831,0.1724944142799439,0.7279986830303143,-0.1776188639080349,0.356775426734726,763.5531135531136,722.0512820512821,634.6153846153846,726.8864468864469,791.7582417582418,-0.098633,0.031067,0.985229,-2.743988,-7.529144,1.794434,1,2,1,1,2,90.000000
2023-08-23 18:46:04.615,,,,,,,,,,,,,,,,,,,,,,,,,,,,,,,,,,,,,,/muse/elements/blink
2023-08-23 18:46:04.868,0.9378989250204516,0.6412067395733282,0.9229641081432516,0.7281112260781483,0.7292096820411113,0.2293295327235756,0.1137626772234742,0.6572300596145439,0.7884042485327183,0.4612888017199495,-0.3221187918394778,0.607451072748631,0.464437876465733,1.023706582008218,0.002961378036847848,0.6652419449774831,0.1724944142799439,0.7279986830303143,-0.1776188639080349,0.356775426734726,674.5054945054945,638.2417582417582,500.4395604395605,637.8388278388279,749.4505494505495,-0.548462,-0.160156,0.818054,3.491669,14.654541,12.127380,1,2,1,1,2,90.000000
2023-08-23 18:46:05.867,0.9378989250204516,0.6412067395733282,0.9229641081432516,0.7281112260781483,0.7292096820411113,0.2293295327235756,0.1137626772234742,0.6572300596145439,0.7884042485327183,0.4612888017199495,-0.3221187918394778,0.607451072748631,0.464437876465733,1.023706582008218,0.002961378036847848,0.6652419449774831,0.1724944142799439,0.7279986830303143,-0.1776188639080349,0.356775426734726,776.0439560439561,734.1391941391942,834.0659340659341,680.1465201465202,774.4322344322345,-0.441162,-0.006958,0.902405,5.106659,-18.834076,-6.781464,1,2,1,1,2,90.000000
2023-08-23 18:46:06.866,0.9378989250204516,0.6412067395733282,0.9229641081432516,1.166221650385796,0.7292096820411113,0.2293295327235756,0.1137626772234742,0.8308040841283733,0.7884042485327183,0.4612888017199495,-0.3221187918394778,0.6838633928473243,0.464437876465733,1.023706582008218,0.002961378036847848,0.7280906575845932,0.1724944142799439,0.7279986830303143,-0.1776188639080349,0.6645029520254585,702.7106227106227,697.4725274725275,782.0879120879121,664.4322344322344,715.2014652014652,-0.054504,-0.047974,0.972900,3.910370,-7.162781,-3.013153,1,2,1,1,2,90.000000
2023-08-23 18:46:07.867,0.9785834484733847,0.6412067395733282,0.9229641081432516,1.1051610124932,0.9962207732164006,0.2293295327235756,0.1137626772234742,0.8193116773812582,0.55032884722049,0.4612888017199495,-0.3221187918394778,0.7252293026223652,0.6562304014787191,1.023706582008218,0.002961378036847848,0.7536863195860233,0.5088652398332142,0.7279986830303143,-0.1776188639080349,0.6708488205392077,729.7069597069598,691.4285714285714,728.901098901099,697.0695970695971,718.021978021978,-0.121887,0.169678,0.951843,13.704987,0.388794,7.760925,1,1,1,1,1,90.000000
2023-08-23 18:46:08.866,0.9836582837201002,0.6412067395733282,0.9229641081432516,1.153396468378354,0.9187369437911327,0.2293295327235756,0.1137626772234742,0.8543436274565316,0.5550355583606368,0.4612888017199495,-0.3221187918394778,0.6991150762801462,0.638381499117375,1.023706582008218,0.002961378036847848,0.7520785695590353,0.5002285477369202,0.7279986830303143,-0.1776188639080349,0.6311079768868378,731.3186813186813,674.9084249084249,694.2490842490843,675.3113553113553,798.6080586080586,-0.109436,0.184937,0.964478,1.607513,-3.626251,-0.523376,1,1,1,1,1,90.000000
2023-08-23 18:46:09.868,0.7060817385626291,0.6412067395733282,0.9229641081432516,0.6652417940702342,-0.04642184001251418,0.2293295327235756,0.1137626772234742,0.4247789121596976,0.3463956476761157,0.4612888017199495,-0.3221187918394778,0.8341844806783031,0.63554509186752,1.023706582008218,0.002961378036847848,0.5194996422341414,0.5001200294093273,0.7279986830303143,-0.1776188639080349,0.3543379686312156,752.2710622710623,739.7802197802198,756.7032967032967,726.8864468864469,777.2527472527473,-0.132751,0.098755,0.987915,-7.327271,-3.865509,8.725433,1,1,1,1,1,90.000000
2023-08-23 18:46:10.867,0.5836100907899963,0.6412067395733282,0.9229641081432516,0.6591841386755721,-0.1740648409588353,0.2293295327235756,0.1137626772234742,0.4112563414613298,0.2822997362785326,0.4612888017199495,-0.3221187918394778,0.6070488781690452,0.6528254287358486,1.023706582008218,0.002961378036847848,0.5815590436587884,0.5087322591243569,0.7279986830303143,-0.1776188639080349,0.3897564161213355,745.8241758241759,718.021978021978,722.0512820512821,696.2637362637363,804.2490842490843,-0.191162,0.001526,0.965576,-1.846771,-5.787048,0.209351,1,1,1,1,1,90.000000
2023-08-23 18:46:11.867,0.5836100907899963,0.6412067395733282,0.9229641081432516,0.6591841386755721,-0.1740648409588353,0.2293295327235756,0.1137626772234742,0.4112563414613298,0.2822997362785326,0.4612888017199495,-0.3221187918394778,0.6070488781690452,0.6528254287358486,1.023706582008218,0.002961378036847848,0.5815590436587884,0.5087322591243569,0.7279986830303143,-0.1776188639080349,0.3897564161213355,711.1721611721612,685.7875457875458,798.6080586080586,707.5457875457876,742.1978021978023,-0.222229,-0.090454,0.967773,-5.884247,-7.058105,-8.762817,1,1,1,1,1,90.000000
2023-08-23 18:46:12.866,0.5836100907899963,0.6412067395733282,0.9229641081432516,0.6591841386755721,-0.1740648409588353,0.2293295327235756,0.1137626772234742,0.4112563414613298,0.2822997362785326,0.4612888017199495,-0.3221187918394778,0.6070488781690452,0.6528254287358486,1.023706582008218,0.002961378036847848,0.5815590436587884,0.5087322591243569,0.7279986830303143,-0.1776188639080349,0.3897564161213355,730.5128205128206,701.0989010989011,676.9230769230769,699.4871794871796,833.2600732600733,-0.097778,-0.076233,0.980835,0.343933,-5.532837,-2.714081,1,2,1,1,2,90.000000
2023-08-23 18:46:13.249,,,,,,,,,,,,,,,,,,,,,,,,,,,,,,,,,,,,,,/muse/elements/blink
2023-08-23 18:46:13.338,,,,,,,,,,,,,,,,,,,,,,,,,,,,,,,,,,,,,,/muse/elements/jaw_clench
2023-08-23 18:46:13.866,1.321005340995256,0.6412067395733282,0.9229641081432516,0.9318120367099531,0.86181224286376,0.2293295327235756,0.1137626772234742,0.3924008115669887,0.7243728227581624,0.4612888017199495,-0.3221187918394778,0.7199634305234636,0.585288680395593,1.023706582008218,0.002961378036847848,0.6973511990058455,0.2455429412785601,0.7279986830303143,-0.1776188639080349,0.316235799636316,704.3223443223443,697.0695970695971,832.8571428571429,688.2051282051282,796.1904761904763,-0.142578,-0.002563,0.981201,18.998566,-14.542389,-7.633820,1,1,1,1,1,100.000000
2023-08-23 18:46:14.866,1.234394403506041,0.6412067395733282,0.9229641081432516,0.863612890582954,0.8135144418534944,0.2293295327235756,0.1137626772234742,0.2679887811728306,0.6750415023709909,0.4612888017199495,-0.3221187918394778,0.65645616935553,0.5620975637177958,1.023706582008218,0.002961378036847848,0.6541931044504442,0.2584595908708719,0.7279986830303143,-0.1776188639080349,0.2823958659382036,702.3076923076924,679.7435897435897,564.9084249084249,672.0879120879121,746.6300366300367,-0.147583,0.249512,0.944885,-1.323395,-5.876770,9.585266,1,1,1,1,1,100.000000
2023-08-23 18:46:15.313,,,,,,,,,,,,,,,,,,,,,,,,,,,,,,,,,,,,,,/muse/elements/blink
2023-08-23 18:46:15.871,1.234394403506041,0.5802263892836501,0.9229641081432516,0.863612890582954,0.8135144418534944,0.002602135152202366,0.1137626772234742,0.2679887811728306,0.6750415023709909,0.461100152520662,-0.3221187918394778,0.65645616935553,0.5620975637177958,0.8696926855245485,0.002961378036847848,0.6541931044504442,0.2584595908708719,0.8287947985450033,-0.1776188639080349,0.2823958659382036,720.4395604395604,709.1575091575091,743.0036630036631,681.7582417582418,745.4212454212454,-0.185852,0.246155,0.957764,15.342407,-2.998199,-21.690216,1,2,1,1,2,100.000000
2023-08-23 18:46:16.866,1.234394403506041,0.6029648339730002,0.9229641081432516,0.863612890582954,0.8135144418534944,0.01782326206244749,0.1137626772234742,0.2679887811728306,0.6750415023709909,0.5067928953589094,-0.3221187918394778,0.65645616935553,0.5620975637177958,0.9374044001088965,0.002961378036847848,0.6541931044504442,0.2584595908708719,0.7908344077528375,-0.1776188639080349,0.2823958659382036,709.1575091575091,693.4432234432235,702.7106227106227,688.2051282051282,703.1135531135532,-0.192017,0.232483,0.945618,-2.519684,-7.476807,-3.028107,1,2,1,1,2,100.000000
2023-08-23 18:46:17.866,0.8001100854676872,0.7576752032168339,0.9229641081432516,0.728948831343459,0.7827168533221853,0.4995694638046351,0.1137626772234742,0.6793714338410428,0.9680752054956472,0.6937799696569016,-0.3221187918394778,0.1896424793351387,0.643262744317242,0.8814224199397401,0.002961378036847848,0.475876001844029,0.4509029722184048,0.6065546367670795,-0.1776188639080349,0.1891888245714463,718.4249084249085,698.2783882783883,710.7692307692308,706.3369963369963,817.948717948718,-0.163696,0.125122,0.978271,-10.736694,-15.491943,3.895416,1,1,1,1,1,100.000000
2023-08-23 18:46:18.866,1.275530864894473,0.8548339265573491,0.9229641081432516,1.08809047148275,0.8399287420908578,0.7839497946934674,0.1137626772234742,0.8737447351551006,0.9076812039076234,0.6939248344760728,-0.3221187918394778,0.8701210260513856,0.565394495134669,0.9242523581133981,0.002961378036847848,0.5282540901954625,0.2400994467721181,0.7045587118133488,-0.1776188639080349,0.2307999705419468,753.0769230769231,697.4725274725275,736.959706959707,731.7216117216118,716.007326007326,-0.007141,0.002625,0.981689,3.222504,9.951630,5.114136,1,1,1,1,1,100.000000
2023-08-23 18:46:19.872,1.546512740130641,0.8096660222748033,0.9229641081432516,1.08809047148275,0.9858952915617942,0.7368376401227327,0.1137626772234742,0.8737447351551006,0.9804620658896579,0.6088046163407862,-0.3221187918394778,0.8701210260513856,0.6205319604104295,0.9860785714221052,0.002961378036847848,0.5282540901954625,0.07341536253320509,0.7793097374998984,-0.1776188639080349,0.2307999705419468,767.5824175824176,687.8021978021978,760.7326007326008,724.4688644688645,713.5897435897436,-0.250366,0.035767,0.963318,2.878571,-5.944061,2.721558,1,1,1,1,1,100.000000
2023-08-23 18:46:20.870,0.8690784113244343,0.5058662924665316,0.9229641081432516,0.8667586700346633,0.508673053921408,0.1419547519716153,0.1137626772234742,0.6296419834391855,0.9690225570736802,0.2273543814454229,-0.3221187918394778,1.089542313256423,0.7535820859311335,0.8656493545757085,0.002961378036847848,0.5424431016609526,0.587083906246272,0.9685383636953282,-0.1776188639080349,0.2528979113490299,777.2527472527473,790.1465201465202,799.8168498168499,743.8095238095239,818.3516483516484,-0.134460,-0.072205,0.978943,3.297272,-1.876678,-7.192688,1,1,1,1,1,100.000000
2023-08-23 18:46:21.866,0.7810585704935333,0.5574922154130226,0.9229641081432516,1.087290640818511,0.1916163006402623,0.3420239002965894,0.1137626772234742,0.4343957990828574,0.5093834547615465,0.2817522083165433,-0.3221187918394778,0.8654602080806507,0.7634202642410318,0.9101015194903895,0.002961378036847848,0.5933376568660335,0.6133916447507277,0.9457022783578822,-0.1776188639080349,0.3043671496953385,828.8278388278388,826.007326007326,782.4908424908425,820.7692307692308,776.0439560439561,-0.188721,-0.051453,0.958679,6.228180,8.224487,0.942078,1,1,1,1,1,100.000000
2023-08-23 18:46:22.112,,,,,,,,,,,,,,,,,,,,,,,,,,,,,,,,,,,,,,/muse/elements/blink
2023-08-23 18:46:22.291,,,,,,,,,,,,,,,,,,,,,,,,,,,,,,,,,,,,,,/muse/elements/jaw_clench
2023-08-23 18:46:22.605,,,,,,,,,,,,,,,,,,,,,,,,,,,,,,,,,,,,,,/muse/elements/blink
2023-08-23 18:46:22.866,0.7187725341048119,0.6036280551836004,0.9229641081432516,1.305876267860394,0.1669789019318417,0.4784727450550804,0.1137626772234742,0.3520106482424598,0.4377409563320451,0.1562130227034469,-0.3221187918394778,0.8063018082487972,0.7435655714802785,0.9504232850387353,0.002961378036847848,0.6863191231818162,0.5908818550976788,0.9215984569009554,-0.1776188639080349,0.4806053045282084,920.6959706959707,875.1648351648352,1016.190476190476,943.2600732600733,689.8168498168499,-0.491943,-0.040344,0.867737,-3.925323,2.998199,18.714447,1,1,1,1,1,100.000000
2023-08-23 18:46:23.866,0.7187725341048119,0.6036280551836004,0.9229641081432516,1.305876267860394,0.1669789019318417,0.4784727450550804,0.1137626772234742,0.3520106482424598,0.4377409563320451,0.1562130227034469,-0.3221187918394778,0.8063018082487972,0.7435655714802785,0.9504232850387353,0.002961378036847848,0.6863191231818162,0.5908818550976788,0.9215984569009554,-0.1776188639080349,0.4806053045282084,851.3919413919414,824.3956043956044,742.1978021978023,849.3772893772895,954.5421245421246,-0.522949,0.091675,0.871765,17.084503,-6.228180,-6.430054,1,1,1,1,1,100.000000
2023-08-23 18:46:24.866,0.7187725341048119,0.6036280551836004,0.9229641081432516,1.547056738259557,0.1669789019318417,0.4784727450550804,0.1137626772234742,0.1937814147123098,0.4377409563320451,0.1562130227034469,-0.3221187918394778,0.8307775141403759,0.7435655714802785,0.9504232850387353,0.002961378036847848,0.9853768856548608,0.5908818550976788,0.9215984569009554,-0.1776188639080349,0.5536509366070594,826.8131868131868,869.92673992674,1061.721611721612,834.0659340659341,723.6630036630037,-0.050171,-0.010315,0.978821,6.602020,-12.411499,1.248627,1,1,1,1,1,100.000000
2023-08-23 18:46:25.870,0.7187725341048119,0.6036280551836004,0.9229641081432516,1.547056738259557,0.1669789019318417,0.4784727450550804,0.1137626772234742,0.1937814147123098,0.4377409563320451,0.1562130227034469,-0.3221187918394778,0.8307775141403759,0.7435655714802785,0.9504232850387353,0.002961378036847848,0.9853768856548608,0.5908818550976788,0.9215984569009554,-0.1776188639080349,0.5536509366070594,774.0293040293041,747.8388278388279,952.1245421245421,790.952380952381,816.3369963369963,0.040710,0.033936,0.986145,-2.721558,-1.839294,13.600311,1,1,1,1,1,100.000000
2023-08-23 18:46:26.866,1.419601299943262,0.6036280551836004,0.9229641081432516,1.547056738259557,0.9810109059479716,0.4784727450550804,0.1137626772234742,0.1937814147123098,0.7731850042328769,0.1562130227034469,-0.3221187918394778,0.8307775141403759,1.087766375211216,0.9504232850387353,0.002961378036847848,0.9853768856548608,0.5376019923347514,0.9215984569009554,-0.1776188639080349,0.5536509366070594,808.2783882783883,824.3956043956044,791.3553113553114,817.1428571428571,767.985347985348,-0.070923,0.121399,0.974915,7.394562,-5.988922,-8.082428,1,1,1,1,1,100.000000
2023-08-23 18:46:27.866,1.229699915868083,0.8222495204521612,0.9229641081432516,1.547056738259557,0.7917425441834876,0.08786809170470011,0.1137626772234742,0.1937814147123098,1.011709370404311,0.4525679348185749,-0.3221187918394778,0.8307775141403759,0.4900193107588016,0.7168206459354662,0.002961378036847848,0.9853768856548608,0.3426321092657204,1.043389241631742,-0.1776188639080349,0.5536509366070594,850.989010989011,843.3333333333334,833.6630036630037,816.3369963369963,682.5641025641025,0.105591,-0.058350,0.961182,-10.714264,-0.209351,-22.804260,1,1,1,1,1,100.000000
2023-08-23 18:46:28.384,,,,,,,,,,,,,,,,,,,,,,,,,,,,,,,,,,,,,,/muse/elements/blink
2023-08-23 18:46:28.866,1.221841112087097,0.8022207665675912,0.9229641081432516,1.547056738259557,0.7882323721071,-0.0606126717621696,0.1137626772234742,0.1937814147123098,0.9862622730219689,0.4562929569649932,-0.3221187918394778,0.8307775141403759,0.4768098587493418,0.7717858826264486,0.002961378036847848,0.9853768856548608,0.2796387649858332,1.008818454266725,-0.1776188639080349,0.5536509366070594,817.1428571428571,815.1282051282052,811.5018315018315,792.5641025641025,810.6959706959707,0.037720,-0.001587,0.971741,-6.175842,-1.076660,-11.357269,1,1,1,1,1,100.000000
2023-08-23 18:46:29.866,0.9256214035597922,0.8022207665675912,0.9229641081432516,1.547056738259557,0.6873011892787566,-0.0606126717621696,0.1137626772234742,0.1937814147123098,0.8911506981382437,0.4562929569649932,-0.3221187918394778,0.8307775141403759,0.4389960276636652,0.7717858826264486,0.002961378036847848,0.9853768856548608,0.243636724592764,1.008818454266725,-0.1776188639080349,0.5536509366070594,853.8095238095239,885.2380952380953,890.4761904761905,845.7509157509157,763.1501831501831,-0.025635,-0.074280,0.981934,-8.134766,-12.762909,-13.316193,1,1,1,1,1,100.000000
2023-08-23 18:46:30.301,,,,,,,,,,,,,,,,,,,,,,,,,,,,,,,,,,,,,,/muse/elements/blink
2023-08-23 18:46:30.866,1.112712644432586,0.8022207665675912,0.9229641081432516,0.7940997266498226,0.6064696439871505,-0.0606126717621696,0.1137626772234742,0.5791540848607258,0.9379563038995929,0.4562929569649932,-0.3221187918394778,0.9180589714547066,0.690552220719177,0.7717858826264486,0.002961378036847848,0.829197575730101,0.1902938649181964,1.008818454266725,-0.1776188639080349,0.3786563535814731,861.4652014652015,868.3150183150184,880,872.7472527472528,650.3296703296703,-0.116089,-0.038452,0.989624,1.517792,0.067291,-1.958923,1,1,1,1,1,100.000000
2023-08-23 18:46:31.874,0.3360024861480085,0.4454152372239081,0.9229641081432516,0.4592148759559227,0.5520458729622399,-0.1115335982766239,0.1137626772234742,0.5324520296960812,0.4434529773567306,-0.1521035278212951,-0.3221187918394778,0.6713793855777254,0.5201461855420103,0.8936405640563756,0.002961378036847848,0.7365836063956995,0.25000939513029,0.7521312543767114,-0.1776188639080349,0.2791020507735354,838.901098901099,819.1575091575091,803.040293040293,822.7838827838829,721.2454212454213,-0.098389,-0.048767,0.982849,2.190704,-5.084229,0.687866,1,1,1,1,1,100.000000
2023-08-23 18:46:32.877,0.8756806358435099,0.5332610311542318,0.9229641081432516,0.8669471425741215,0.5680966914995403,-0.1254720131971878,0.1137626772234742,0.3905966577465697,0.7042512168619913,0.1290991191437136,-0.3221187918394778,0.7960143939112064,0.488278473756303,0.8313558285758954,0.002961378036847848,0.6275075406053113,0.1123310141940502,0.7218616886700874,-0.1776188639080349,0.1835926324057729,849.3772893772895,865.8974358974359,869.1208791208792,842.5274725274726,803.040293040293,-0.081909,-0.015381,0.989136,1.607513,-4.515991,0.074768,1,1,1,1,1,100.000000
2023-08-23 18:46:33.859,,,,,,,,,,,,,,,,,,,,,,,,,,,,,,,,,,,,,,/muse/elements/blink
2023-08-23 18:46:33.870,1.009037340088237,0.7607873649928677,0.9229641081432516,0.9299317413393386,0.5774887012554546,0.6068060396550387,0.1137626772234742,0.4616753708623879,1.126415235706057,0.3088615608469201,-0.3221187918394778,0.6654252867650896,0.3894214948997561,0.9491602818586005,0.002961378036847848,0.4503315654271351,0.1095869979441342,0.957760818134433,-0.1776188639080349,0.12200140618966,806.2637362637363,787.3260073260074,765.1648351648352,777.2527472527473,740.989010989011,0.016663,-0.069519,0.994934,-2.048645,-3.357086,8.605804,1,1,1,1,1,100.000000
2023-08-23 18:46:34.866,1.115939328813621,0.8148402751107722,0.9229641081432516,0.9245895445098568,0.8724994632452067,0.6323205229121193,0.1137626772234742,0.6107426414421948,1.1685105625708,0.5746305382084751,-0.3221187918394778,0.6419143435819188,0.3978780100957747,0.9472874244150629,0.002961378036847848,0.6103614256342506,0.1602814614585908,0.7687117238211005,-0.1776188639080349,0.2195830662992335,854.2124542124542,813.5164835164835,862.2710622710623,826.8131868131868,802.2344322344322,-0.299500,-0.056519,0.951355,5.256195,-12.239532,-4.620667,1,1,1,1,1,100.000000
2023-08-23 18:46:35.874,1.104909825922843,0.8148402751107722,0.9229641081432516,0.9245895445098568,1.035443512339313,0.6323205229121193,0.1137626772234742,0.6107426414421948,0.9686846588678484,0.5746305382084751,-0.3221187918394778,0.6419143435819188,0.3607918211680857,0.9472874244150629,0.002961378036847848,0.6103614256342506,0.1754002439404869,0.7687117238211005,-0.1776188639080349,0.2195830662992335,845.7509157509157,889.6703296703297,802.6373626373627,856.2271062271062,828.4249084249085,-0.097412,0.109619,0.973450,32.546539,-10.602112,-9.749756,1,1,1,1,1,100.000000
2023-08-23 18:46:36.016,,,,,,,,,,,,,,,,,,,,,,,,,,,,,,,,,,,,,,/muse/elements/blink
2023-08-23 18:46:36.866,1.521838325791886,0.8148402751107722,0.9229641081432516,1.10704509366016,1.190869449789151,0.6323205229121193,0.1137626772234742,0.7093737048749661,1.40767775854021,0.5746305382084751,-0.3221187918394778,1.19874450054561,0.7558414137077848,0.9472874244150629,0.002961378036847848,0.9017703426181657,0.2425516955072946,0.7687117238211005,-0.1776188639080349,0.4281945407317822,800.6227106227107,783.6996336996338,813.5164835164835,779.2673992673992,735.7509157509157,-0.077148,0.089661,0.986938,-14.751740,-8.852539,4.859924,1,1,1,1,1,100.000000
2023-08-23 18:46:37.866,1.177735324714922,0.8148402751107722,0.9229641081432516,0.984361918639169,0.7700509638445838,0.6323205229121193,0.1137626772234742,0.4598226914021576,1.039521806105279,0.5746305382084751,-0.3221187918394778,0.8177194905411617,0.6521167406514889,0.9472874244150629,0.002961378036847848,0.8709447183518262,0.2807182576597899,0.7687117238211005,-0.1776188639080349,0.3490027351289701,815.934065934066,814.3223443223443,671.6849816849817,788.5347985347986,780.0732600732601,0.044495,0.025696,0.968750,11.648865,-4.852448,-16.404114,1,1,1,1,1,100.000000
2023-08-23 18:46:38.867,1.204569485544868,1.027161384086461,0.9229641081432516,1.098022765262694,0.8614464194447048,0.8692813166951902,0.1137626772234742,0.663312064031778,1.033809774501941,0.8836536958162459,-0.3221187918394778,0.5375411787370326,0.5524599633939573,0.9420992099201664,0.002961378036847848,0.7978996225069575,0.1563387800377226,0.7404635584110242,-0.1776188639080349,0.2368170509117325,814.7252747252747,874.3589743589744,381.978021978022,815.934065934066,914.6520146520147,-0.025879,0.127991,1.006470,16.493835,50.124512,-42.565460,1,1,1,1,1,100.000000
2023-08-23 18:46:38.924,,,,,,,,,,,,,,,,,,,,,,,,,,,,,,,,,,,,,,/muse/elements/blink
2023-08-23 18:46:39.079,,,,,,,,,,,,,,,,,,,,,,,,,,,,,,,,,,,,,,/muse/elements/jaw_clench
2023-08-23 18:46:39.344,,,,,,,,,,,,,,,,,,,,,,,,,,,,,,,,,,,,,,/muse/elements/blink
2023-08-23 18:46:39.866,1.364122333356843,1.267821553089179,0.9229641081432516,1.098022765262694,0.975884192490225,1.030950497754947,0.1137626772234742,0.663312064031778,0.9513608638731964,0.8533083631014824,-0.3221187918394778,0.5375411787370326,0.6105812141335329,1.156125147844756,0.002961378036847848,0.7978996225069575,0.04601455087950852,0.8840258076012347,-0.1776188639080349,0.2368170509117325,883.2234432234433,931.1721611721612,862.6739926739926,894.908424908425,722.4542124542124,-0.741577,-0.074463,0.692261,-16.007843,-7.581482,13.204041,1,1,1,1,1,100.000000
2023-08-23 18:46:40.288,,,,,,,,,,,,,,,,,,,,,,,,,,,,,,,,,,,,,,/muse/elements/blink
2023-08-23 18:46:40.869,1.364122333356843,1.267821553089179,0.9229641081432516,1.098022765262694,0.975884192490225,1.030950497754947,0.1137626772234742,0.663312064031778,0.9513608638731964,0.8533083631014824,-0.3221187918394778,0.5375411787370326,0.6105812141335329,1.156125147844756,0.002961378036847848,0.7978996225069575,0.04601455087950852,0.8840258076012347,-0.1776188639080349,0.2368170509117325,865.8974358974359,825.2014652014652,940.4395604395605,883.6263736263736,746.6300366300367,-0.532715,0.095093,0.827271,7.850647,-2.317810,5.398254,1,1,1,1,1,100.000000
2023-08-23 18:46:41.866,1.364122333356843,1.267821553089179,0.9229641081432516,1.501389124282715,0.975884192490225,1.030950497754947,0.1137626772234742,0.8971374265283542,0.9513608638731964,0.8533083631014824,-0.3221187918394778,1.059974155828746,0.6105812141335329,1.156125147844756,0.002961378036847848,0.9847047973767004,0.04601455087950852,0.8840258076012347,-0.1776188639080349,0.797745509539782,894.908424908425,920.2930402930403,769.1941391941392,889.6703296703297,709.1575091575091,-0.429138,0.094482,0.895569,6.138458,-38.049469,-21.727600,1,1,1,2,1,100.000000
2023-08-23 18:46:42.732,,,,,,,,,,,,,,,,,,,,,,,,,,,,,,,,,,,,,,/muse/elements/blink
2023-08-23 18:46:42.822,,,,,,,,,,,,,,,,,,,,,,,,,,,,,,,,,,,,,,/muse/elements/jaw_clench
2023-08-23 18:46:42.866,1.364122333356843,1.267821553089179,0.9229641081432516,1.448969417143923,0.975884192490225,1.030950497754947,0.1137626772234742,0.9883189799694569,0.9513608638731964,0.8533083631014824,-0.3221187918394778,1.115404092616647,0.6105812141335329,1.156125147844756,0.002961378036847848,0.9084011885512757,0.04601455087950852,0.8840258076012347,-0.1776188639080349,0.7739637501405762,813.5164835164835,743.0036630036631,363.0402930402931,735.3479853479854,786.9230769230769,-0.449402,0.089417,0.870972,6.691742,19.372406,-3.327179,1,1,1,2,1,100.000000
2023-08-23 18:46:42.998,,,,,,,,,,,,,,,,,,,,,,,,,,,,,,,,,,,,,,/muse/elements/blink
2023-08-23 18:46:43.866,1.364122333356843,1.267821553089179,0.9229641081432516,1.373062977279103,0.975884192490225,1.030950497754947,0.1137626772234742,1.080591192576824,0.9513608638731964,0.8533083631014824,-0.3221187918394778,1.085036565572799,0.6105812141335329,1.156125147844756,0.002961378036847848,0.7891611487296707,0.04601455087950852,0.8840258076012347,-0.1776188639080349,0.7422793852962436,818.7545787545788,845.3479853479854,873.1501831501831,855.8241758241759,794.1758241758242,-0.501343,0.077515,0.853638,1.704712,-9.712372,0.433655,1,1,1,2,1,100.000000
2023-08-23 18:46:44.550,,,,,,,,,,,,,,,,,,,,,,,,,,,,,,,,,,,,,,/muse/elements/blink
2023-08-23 18:46:44.747,,,,,,,,,,,,,,,,,,,,,,,,,,,,,,,,,,,,,,/muse/elements/jaw_clench
2023-08-23 18:46:44.866,1.364122333356843,1.267821553089179,0.9229641081432516,1.373062977279103,0.975884192490225,1.030950497754947,0.1137626772234742,1.080591192576824,0.9513608638731964,0.8533083631014824,-0.3221187918394778,1.085036565572799,0.6105812141335329,1.156125147844756,0.002961378036847848,0.7891611487296707,0.04601455087950852,0.8840258076012347,-0.1776188639080349,0.7422793852962436,846.5567765567765,856.6300366300367,925.1282051282052,877.985347985348,706.3369963369963,-0.485840,0.040894,0.859619,-4.344025,-4.994507,-4.620667,1,1,1,2,1,100.000000
2023-08-23 18:46:45.877,1.364122333356843,1.267821553089179,0.9229641081432516,1.373062977279103,0.975884192490225,1.030950497754947,0.1137626772234742,1.080591192576824,0.9513608638731964,0.8533083631014824,-0.3221187918394778,1.085036565572799,0.6105812141335329,1.156125147844756,0.002961378036847848,0.7891611487296707,0.04601455087950852,0.8840258076012347,-0.1776188639080349,0.7422793852962436,846.5567765567765,838.901098901099,651.1355311355312,834.4688644688645,778.0586080586081,-0.274536,0.033569,0.927368,8.762817,-33.084869,-19.312592,1,2,1,1,2,100.000000
2023-08-23 18:46:46.282,,,,,,,,,,,,,,,,,,,,,,,,,,,,,,,,,,,,,,/muse/elements/jaw_clench
2023-08-23 18:46:46.483,,,,,,,,,,,,,,,,,,,,,,,,,,,,,,,,,,,,,,/muse/elements/jaw_clench
2023-08-23 18:46:46.868,1.364122333356843,1.267821553089179,0.9229641081432516,1.373062977279103,0.975884192490225,1.030950497754947,0.1137626772234742,1.080591192576824,0.9513608638731964,0.8533083631014824,-0.3221187918394778,1.085036565572799,0.6105812141335329,1.156125147844756,0.002961378036847848,0.7891611487296707,0.04601455087950852,0.8840258076012347,-0.1776188639080349,0.7422793852962436,849.7802197802198,892.0879120879121,1154.395604395604,848.5714285714286,782.893772893773,-0.136108,0.123596,0.988220,4.628143,-13.368530,2.115936,1,2,1,2,2,100.000000
2023-08-23 18:46:47.866,1.364122333356843,1.267821553089179,0.9229641081432516,1.373062977279103,0.975884192490225,1.030950497754947,0.1137626772234742,1.080591192576824,0.9513608638731964,0.8533083631014824,-0.3221187918394778,1.085036565572799,0.6105812141335329,1.156125147844756,0.002961378036847848,0.7891611487296707,0.04601455087950852,0.8840258076012347,-0.1776188639080349,0.7422793852962436,859.8534798534798,912.2344322344322,948.0952380952381,880.4029304029305,766.3736263736264,-0.208191,0.224243,0.936768,6.243134,-1.450500,-5.600128,1,2,1,2,2,100.000000
2023-08-23 18:46:48.866,0.9352171398223343,1.267821553089179,0.9229641081432516,1.373062977279103,0.6137485438786132,1.030950497754947,0.1137626772234742,1.080591192576824,0.8211530958767423,0.8533083631014824,-0.3221187918394778,1.085036565572799,0.9544521479347983,1.156125147844756,0.002961378036847848,0.7891611487296707,0.8117783970183212,0.8840258076012347,-0.1776188639080349,0.7422793852962436,931.5750915750916,981.941391941392,802.6373626373627,943.6630036630037,732.1245421245421,-0.289001,0.203369,0.983093,-2.601929,-7.880554,-2.153320,1,1,1,2,1,100.000000
2023-08-23 18:46:49.866,0.9243326198008497,1.267821553089179,0.9229641081432516,1.373062977279103,0.6165653289565795,1.030950497754947,0.1137626772234742,1.080591192576824,0.7846699059629265,0.8533083631014824,-0.3221187918394778,1.085036565572799,0.9608146894749685,1.156125147844756,0.002961378036847848,0.7891611487296707,0.8303024600258642,0.8840258076012347,-0.1776188639080349,0.7422793852962436,824.7985347985348,838.0952380952381,813.919413919414,842.9304029304029,747.032967032967,-0.248535,0.313232,0.928284,-6.123505,-7.237549,5.944061,1,1,1,1,1,100.000000
2023-08-23 18:46:50.732,,,,,,,,,,,,,,,,,,,,,,,,,,,,,,,,,,,,,,/muse/elements/blink
2023-08-23 18:46:50.866,0.9243326198008497,1.267821553089179,0.9229641081432516,1.373062977279103,0.6165653289565795,1.030950497754947,0.1137626772234742,1.080591192576824,0.7846699059629265,0.8533083631014824,-0.3221187918394778,1.085036565572799,0.9608146894749685,1.156125147844756,0.002961378036847848,0.7891611487296707,0.8303024600258642,0.8840258076012347,-0.1776188639080349,0.7422793852962436,862.2710622710623,865.0915750915751,884.4322344322345,874.7619047619048,680.1465201465202,-0.134338,0.165833,0.959290,1.914062,-3.992615,1.308441,1,1,1,2,1,100.000000
2023-08-23 18:46:51.866,0.9243326198008497,1.267821553089179,0.9229641081432516,1.373062977279103,0.6165653289565795,1.030950497754947,0.1137626772234742,1.080591192576824,0.7846699059629265,0.8533083631014824,-0.3221187918394778,1.085036565572799,0.9608146894749685,1.156125147844756,0.002961378036847848,0.7891611487296707,0.8303024600258642,0.8840258076012347,-0.1776188639080349,0.7422793852962436,880,911.4285714285714,882.014652014652,917.4725274725275,701.9047619047619,-0.190674,0.043823,0.966614,-7.588959,1.151428,5.181427,1,2,1,2,2,100.000000
2023-08-23 18:46:52.866,0.9243326198008497,1.267821553089179,0.9229641081432516,0.5290710970000115,0.6165653289565795,1.030950497754947,0.1137626772234742,0.4950430257323944,0.7846699059629265,0.8533083631014824,-0.3221187918394778,0.4497086020770225,0.9608146894749685,1.156125147844756,0.002961378036847848,0.7394883066646007,0.8303024600258642,0.8840258076012347,-0.1776188639080349,0.5363633272277347,846.1538461538462,876.7765567765568,818.7545787545788,841.3186813186813,750.2564102564103,-0.202148,0.077393,0.958557,10.355377,-7.551575,-9.465637,1,1,1,1,1,100.000000
2023-08-23 18:46:53.866,1.263261462893676,1.267821553089179,0.9229641081432516,0.5290710970000115,0.8103317725988463,1.030950497754947,0.1137626772234742,0.4950430257323944,0.7028887308510148,0.8533083631014824,-0.3221187918394778,0.4497086020770225,0.7514743956819225,1.156125147844756,0.002961378036847848,0.7394883066646007,0.5146723129356405,0.8840258076012347,-0.1776188639080349,0.5363633272277347,839.3040293040293,867.9120879120879,906.5934065934066,865.0915750915751,835.2747252747253,-0.160522,0.111145,0.955688,-3.087921,-1.764526,5.151520,1,1,1,2,1,100.000000
2023-08-23 18:46:54.166,,,,,,,,,,,,,,,,,,,,,,,,,,,,,,,,,,,,,,/muse/elements/blink
2023-08-23 18:46:54.866,1.263261462893676,1.267821553089179,0.9229641081432516,0.5290710970000115,0.8103317725988463,1.030950497754947,0.1137626772234742,0.4950430257323944,0.7028887308510148,0.8533083631014824,-0.3221187918394778,0.4497086020770225,0.7514743956819225,1.156125147844756,0.002961378036847848,0.7394883066646007,0.5146723129356405,0.8840258076012347,-0.1776188639080349,0.5363633272277347,835.6776556776557,837.2893772893773,795.7875457875458,835.2747252747253,670.4761904761905,-0.173767,0.178589,0.957947,2.332764,-4.994507,3.289795,1,1,1,2,1,100.000000
2023-08-23 18:46:55.870,1.263261462893676,1.267821553089179,0.9229641081432516,0.5290710970000115,0.8103317725988463,1.030950497754947,0.1137626772234742,0.4950430257323944,0.7028887308510148,0.8533083631014824,-0.3221187918394778,0.4497086020770225,0.7514743956819225,1.156125147844756,0.002961378036847848,0.7394883066646007,0.5146723129356405,0.8840258076012347,-0.1776188639080349,0.5363633272277347,862.2710622710623,804.2490842490843,895.3113553113553,873.1501831501831,822.7838827838829,-0.173950,0.291992,0.923523,4.239349,7.663727,-0.874786,1,1,1,2,1,100.000000
2023-08-23 18:46:56.865,1.135931867100447,1.267821553089179,0.9229641081432516,0.7824292505945172,0.7771563363681251,1.030950497754947,0.1137626772234742,0.845801257522658,1.032558013517905,0.8533083631014824,-0.3221187918394778,0.69594324694075,0.8676385815595232,1.156125147844756,0.002961378036847848,0.6760422263673261,0.6083514329471635,0.8840258076012347,-0.1776188639080349,0.4415255969743923,859.047619047619,898.1318681318681,901.3553113553114,887.2527472527473,676.9230769230769,-0.166260,0.337463,0.909363,1.443024,-3.887939,-0.575714,1,1,1,1,1,100.000000
2023-08-23 18:46:57.866,0.9684922836236907,1.267821553089179,0.9229641081432516,0.7446871552148996,0.6938561823728316,1.030950497754947,0.1137626772234742,0.4552410362589273,1.062315537378772,0.8533083631014824,-0.3221187918394778,0.5935419063103482,0.9634911447228375,1.156125147844756,0.002961378036847848,0.7912577186787972,0.5762340360322794,0.8840258076012347,-0.1776188639080349,0.4870452442674471,885.2380952380953,913.8461538461539,895.3113553113553,904.5787545787546,781.2820512820513,-0.133118,0.289062,0.925049,-11.417084,-2.437439,21.159363,1,1,1,1,1,100.000000
2023-08-23 18:46:58.866,1.088091222668857,1.267821553089179,0.9229641081432516,1.059345663286435,0.8415274709477816,1.030950497754947,0.1137626772234742,0.7325911656223978,0.9594376613391575,0.8533083631014824,-0.3221187918394778,0.420138570703387,0.8140359392353402,1.156125147844756,0.002961378036847848,0.737055328174719,0.5406298188289618,0.8840258076012347,-0.1776188639080349,0.5062378861839743,939.6336996336996,994.0293040293041,907.8021978021978,910.6227106227107,1043.589743589744,-0.263733,0.147217,0.929260,31.425018,-10.123596,-41.100006,1,1,1,1,1,100.000000
2023-08-23 18:46:59.866,1.183998214510531,1.267821553089179,0.9229641081432516,1.125242112034373,0.8852616099534053,1.030950497754947,0.1137626772234742,0.8074785598616288,0.8594614827918632,0.8533083631014824,-0.3221187918394778,0.3918618217565943,0.6844379940212726,1.156125147844756,0.002961378036847848,0.7200215356288818,0.3494358180210143,0.8840258076012347,-0.1776188639080349,0.5033954538386313,862.6739926739926,876.3736263736264,891.2820512820513,904.5787545787546,801.4285714285714,-0.195862,-0.032043,0.979431,8.613281,-12.501221,-19.080811,1,1,1,1,1,100.000000
2023-08-23 18:47:00.166,,,,,,,,,,,,,,,,,,,,,,,,,,,,,,,,,,,,,,/muse/elements/blink
2023-08-23 18:47:00.872,1.183998214510531,1.267821553089179,0.9229641081432516,1.125242112034373,0.8852616099534053,1.030950497754947,0.1137626772234742,0.8074785598616288,0.8594614827918632,0.8533083631014824,-0.3221187918394778,0.3918618217565943,0.6844379940212726,1.156125147844756,0.002961378036847848,0.7200215356288818,0.3494358180210143,0.8840258076012347,-0.1776188639080349,0.5033954538386313,828.4249084249085,817.948717948718,846.5567765567765,823.5897435897436,672.4908424908425,-0.153198,-0.112610,0.974243,-0.979462,-8.187103,1.390686,1,1,1,1,1,100.000000
2023-08-23 18:47:01.875,1.631712528594342,1.267821553089179,0.9229641081432516,1.125242112034373,0.9114958629962329,1.030950497754947,0.1137626772234742,0.8074785598616288,1.11117183276243,0.8533083631014824,-0.3221187918394778,0.3918618217565943,0.745261981180505,1.156125147844756,0.002961378036847848,0.7200215356288818,0.3527916236818633,0.8840258076012347,-0.1776188639080349,0.5033954538386313,850.5860805860806,841.3186813186813,892.0879120879121,884.4322344322345,902.1611721611722,-0.116577,-0.070923,0.982727,-0.418701,-4.448700,-1.667328,1,1,1,1,1,100.000000
2023-08-23 18:47:02.865,0.4732565363664712,1.267821553089179,0.9229641081432516,0.4976621221494996,0.07417555703905174,1.030950497754947,0.1137626772234742,0.1115206936171968,0.4520340385215706,0.8533083631014824,-0.3221187918394778,0.7995757878672365,0.4149947651494639,1.156125147844756,0.002961378036847848,0.5063758682818228,0.3194664526205087,0.8840258076012347,-0.1776188639080349,0.3167298786136846,886.4468864468864,899.3406593406594,913.040293040293,908.6080586080586,713.5897435897436,-0.099548,-0.083130,0.978943,2.631836,-4.583282,-2.594452,1,1,1,1,1,100.000000
2023-08-23 18:47:03.867,0.9298935147906806,1.267821553089179,0.9229641081432516,0.6474165822296734,0.5364824424685986,1.030950497754947,0.1137626772234742,0.5021468407501307,0.6535188418323475,0.8533083631014824,-0.3221187918394778,0.671352948633588,0.5174534971855596,1.156125147844756,0.002961378036847848,0.4954733360522247,0.3460079556443748,0.8840258076012347,-0.1776188639080349,0.1651449394251462,858.2417582417582,835.6776556776557,854.6153846153846,863.4798534798535,686.1904761904763,-0.102722,-0.066589,0.982544,-0.000000,9.278717,-2.287903,1,1,1,1,1,100.000000
2023-08-23 18:47:04.144,,,,,,,,,,,,,,,,,,,,,,,,,,,,,,,,,,,,,,/muse/elements/blink
2023-08-23 18:47:04.235,,,,,,,,,,,,,,,,,,,,,,,,,,,,,,,,,,,,,,/muse/elements/jaw_clench
2023-08-23 18:47:04.865,0.9773044322806284,1.267821553089179,0.9229641081432516,0.6051473566405395,0.5942416397647617,1.030950497754947,0.1137626772234742,0.7564611750867479,0.6535188418323475,0.8533083631014824,-0.3221187918394778,0.6405274043616057,0.5669316449285697,1.156125147844756,0.002961378036847848,0.4839197509866099,0.3944685568187577,0.8840258076012347,-0.1776188639080349,0.1305226631253687,886.8498168498169,966.6300366300367,937.6190476190476,900.5494505494506,952.1245421245421,-0.607422,-0.060852,0.769958,-2.243042,-9.398346,0.366364,1,1,1,1,1,100.000000
2023-08-23 18:47:05.869,0.9773044322806284,1.267821553089179,0.9229641081432516,0.6051473566405395,0.5942416397647617,1.030950497754947,0.1137626772234742,0.7564611750867479,0.6535188418323475,0.8533083631014824,-0.3221187918394778,0.6405274043616057,0.5669316449285697,1.156125147844756,0.002961378036847848,0.4839197509866099,0.3944685568187577,0.8840258076012347,-0.1776188639080349,0.1305226631253687,834.8717948717949,860.2564102564103,823.992673992674,854.2124542124542,801.025641025641,-0.223206,-0.008667,0.977478,-1.181335,-16.007843,17.450867,1,1,1,1,1,95.000000
2023-08-23 18:47:06.508,,,,,,,,,,,,,,,,,,,,,,,,,,,,,,,,,,,,,,/muse/elements/blink
2023-08-23 18:47:06.874,0.9773044322806284,1.267821553089179,0.9229641081432516,0.6051473566405395,0.5942416397647617,1.030950497754947,0.1137626772234742,0.7564611750867479,0.6535188418323475,0.8533083631014824,-0.3221187918394778,0.6405274043616057,0.5669316449285697,1.156125147844756,0.002961378036847848,0.4839197509866099,0.3944685568187577,0.8840258076012347,-0.1776188639080349,0.1305226631253687,847.3626373626374,903.7728937728938,652.3443223443223,893.2967032967033,736.959706959707,-0.218140,0.065063,0.966736,-4.478607,-6.452484,8.321686,1,2,1,1,2,95.000000
2023-08-23 18:47:07.303,,,,,,,,,,,,,,,,,,,,,,,,,,,,,,,,,,,,,,/muse/elements/blink
2023-08-23 18:47:07.698,,,,,,,,,,,,,,,,,,,,,,,,,,,,,,,,,,,,,,/muse/elements/blink
2023-08-23 18:47:07.865,0.9773044322806284,1.267821553089179,0.9229641081432516,0.6051473566405395,0.5942416397647617,1.030950497754947,0.1137626772234742,0.7564611750867479,0.6535188418323475,0.8533083631014824,-0.3221187918394778,0.6405274043616057,0.5669316449285697,1.156125147844756,0.002961378036847848,0.4839197509866099,0.3944685568187577,0.8840258076012347,-0.1776188639080349,0.1305226631253687,896.5201465201466,846.5567765567765,1071.391941391941,929.96336996337,921.0989010989011,-0.288513,0.103882,0.923035,11.529236,22.168732,9.039459,1,2,1,2,2,95.000000
2023-08-23 18:47:07.898,,,,,,,,,,,,,,,,,,,,,,,,,,,,,,,,,,,,,,/muse/elements/blink
2023-08-23 18:47:08.875,0.9773044322806284,1.267821553089179,0.9229641081432516,0.6051473566405395,0.5942416397647617,1.030950497754947,0.1137626772234742,0.7564611750867479,0.6535188418323475,0.8533083631014824,-0.3221187918394778,0.6405274043616057,0.5669316449285697,1.156125147844756,0.002961378036847848,0.4839197509866099,0.3944685568187577,0.8840258076012347,-0.1776188639080349,0.1305226631253687,867.1062271062272,884.8351648351648,951.7216117216118,892.893772893773,782.4908424908425,-0.329346,0.208740,0.913391,2.093506,-2.960815,-0.747681,1,2,1,2,2,95.000000
2023-08-23 18:47:09.526,,,,,,,,,,,,,,,,,,,,,,,,,,,,,,,,,,,,,,/muse/elements/blink
2023-08-23 18:47:09.870,0.9773044322806284,1.267821553089179,0.9229641081432516,0.8559484038947627,0.5942416397647617,1.030950497754947,0.1137626772234742,1.085748461011394,0.6535188418323475,0.8533083631014824,-0.3221187918394778,1.150271162521544,0.5669316449285697,1.156125147844756,0.002961378036847848,0.7806371743726493,0.3944685568187577,0.8840258076012347,-0.1776188639080349,0.5953574257797006,870.7326007326008,901.7582417582418,761.5384615384615,889.2673992673992,670.8791208791209,-0.344849,0.142456,0.895386,14.475098,-18.744354,-10.452576,1,1,1,2,1,95.000000
2023-08-23 18:47:10.865,0.9773044322806284,1.267821553089179,0.9229641081432516,1.209513134576547,0.5942416397647617,1.030950497754947,0.1137626772234742,1.046432811130539,0.6535188418323475,0.8533083631014824,-0.3221187918394778,1.162950137880744,0.5669316449285697,1.156125147844756,0.002961378036847848,0.8661629001626832,0.3944685568187577,0.8840258076012347,-0.1776188639080349,0.5208128970397528,809.8901098901099,828.021978021978,940.8424908424909,707.948717948718,768.7912087912088,-0.261292,0.089539,0.947266,-3.611298,-1.009369,11.043243,1,1,1,2,1,95.000000
2023-08-23 18:47:11.869,0.7449731591426871,1.267821553089179,0.9229641081432516,1.458997018192272,0.5249896746208449,1.030950497754947,0.1137626772234742,1.030023077750213,0.7517257884705264,0.8533083631014824,-0.3221187918394778,1.142672372086369,1.041641190791791,1.156125147844756,0.002961378036847848,0.9821008725280125,0.7115467311550221,0.8840258076012347,-0.1776188639080349,0.4281842248936015,884.8351648351648,923.919413919414,862.6739926739926,861.4652014652015,676.5201465201466,-0.254578,0.105225,0.956421,-1.293488,-0.142059,19.110718,1,1,1,1,1,95.000000
2023-08-23 18:47:12.865,0.6104550639161856,1.267821553089179,0.9229641081432516,1.458997018192272,0.4555944284528259,1.030950497754947,0.1137626772234742,1.030023077750213,0.6377853797183144,0.8533083631014824,-0.3221187918394778,1.142672372086369,1.012455983588372,1.156125147844756,0.002961378036847848,0.9821008725280125,0.734683424636542,0.8840258076012347,-0.1776188639080349,0.4281842248936015,854.6153846153846,859.8534798534798,716.007326007326,877.1794871794872,924.7252747252747,-0.373291,0.120361,0.908875,5.218811,-0.007477,-0.373840,1,1,1,1,1,95.000000
2023-08-23 18:47:13.370,,,,,,,,,,,,,,,,,,,,,,,,,,,,,,,,,,,,,,/muse/elements/blink
2023-08-23 18:47:13.874,1.312727656072395,1.267821553089179,0.9229641081432516,1.458997018192272,1.008529733159289,1.030950497754947,0.1137626772234742,1.030023077750213,0.930234998249155,0.8533083631014824,-0.3221187918394778,1.142672372086369,0.922787473017378,1.156125147844756,0.002961378036847848,0.9821008725280125,0.5774843052320903,0.8840258076012347,-0.1776188639080349,0.4281842248936015,862.6739926739926,893.6996336996338,924.3223443223443,899.3406593406594,857.032967032967,-0.319275,0.203918,0.942200,-4.104767,-5.929108,2.901001,1,1,1,1,1,95.000000
2023-08-23 18:47:14.865,1.062286358515987,1.267821553089179,0.9229641081432516,1.229608642600274,0.7073081637472118,1.030950497754947,0.1137626772234742,0.7279418166318955,1.022115270721961,0.8533083631014824,-0.3221187918394778,0.6824617809110676,0.7454402348589053,1.156125147844756,0.002961378036847848,0.880001851777291,0.5365380923968145,0.8840258076012347,-0.1776188639080349,0.1910847715900113,892.0879120879121,933.5897435897436,637.4358974358975,902.967032967033,691.8315018315019,-0.341370,0.178101,0.916748,-1.794434,-1.689758,6.908569,1,1,1,1,1,95.000000
2023-08-23 18:47:15.869,0.835261573194566,1.267821553089179,0.9229641081432516,1.341282855024207,0.2815400880617923,1.030950497754947,0.1137626772234742,0.8425700530095431,0.6649926345275957,0.8533083631014824,-0.3221187918394778,0.6743163049226246,0.7314112228361251,1.156125147844756,0.002961378036847848,0.8828112207401644,0.6549886473850847,0.8840258076012347,-0.1776188639080349,0.1984296985563482,828.021978021978,880.8058608058608,879.1941391941392,860.2564102564103,847.3626373626374,-0.331604,0.257385,0.912231,11.775970,-0.822449,-15.110626,1,1,1,1,1,100.000000
2023-08-23 18:47:16.868,1.113254948479771,1.267821553089179,0.9229641081432516,1.364294186156993,0.2592056327285462,1.030950497754947,0.1137626772234742,0.8597870072881163,0.7169806864671536,0.8533083631014824,-0.3221187918394778,0.6724339009023386,0.8715499200400084,1.156125147844756,0.002961378036847848,0.8235618563715514,0.6294624781306118,0.8840258076012347,-0.1776188639080349,0.1164888416211777,870.3296703296703,898.1318681318681,904.1758241758242,906.1904761904763,982.7472527472528,-0.208008,0.089111,0.964478,2.422485,-4.613190,-4.942169,1,1,1,1,1,100.000000
2023-08-23 18:47:17.864,0.8813320986363647,0.6563017833001801,0.9229641081432516,1.100911765454944,0.3322925526923773,0.1428465132904273,0.1137626772234742,0.6001378877180694,0.681504598144696,0.4692215256050897,-0.3221187918394778,0.7020873927283799,0.7025319852765489,1.021761936112863,0.002961378036847848,0.925831414060545,0.2851827600214459,0.9389351857248687,-0.1776188639080349,0.366876040312037,870.3296703296703,900.952380952381,905.7875457875458,880,755.0915750915751,-0.263672,0.099304,0.954346,3.932800,-2.519684,1.024323,1,1,1,1,1,100.000000
2023-08-23 18:47:18.533,,,,,,,,,,,,,,,,,,,,,,,,,,,,,,,,,,,,,,/muse/elements/jaw_clench
2023-08-23 18:47:18.871,0.5723901749717336,0.7053399232768959,0.9229641081432516,0.9047911938371942,0.1123570876672187,0.2415107473510353,0.1137626772234742,0.5471515473664395,0.6860389395059305,0.5971685918184167,-0.3221187918394778,0.6447658553148853,0.6563205765674101,0.9372286381524059,0.002961378036847848,0.8912121043614604,0.3999174161022489,0.9166478660865527,-0.1776188639080349,0.423623216467679,855.8241758241759,883.2234432234433,839.7069597069598,865.8974358974359,657.5824175824176,-0.280334,0.084167,0.948730,-5.061798,5.914154,18.295746,1,1,1,1,1,100.000000
2023-08-23 18:47:19.484,,,,,,,,,,,,,,,,,,,,,,,,,,,,,,,,,,,,,,/muse/elements/blink
2023-08-23 18:47:19.576,,,,,,,,,,,,,,,,,,,,,,,,,,,,,,,,,,,,,,/muse/elements/jaw_clench
2023-08-23 18:47:19.757,,,,,,,,,,,,,,,,,,,,,,,,,,,,,,,,,,,,,,/muse/elements/jaw_clench
2023-08-23 18:47:19.865,0.694817829810201,0.9637448970791552,0.9229641081432516,1.169174109561433,0.2456651967433506,0.5276278848329753,0.1137626772234742,0.7609802456166026,0.8584131994127692,0.4698220440016369,-0.3221187918394778,0.617650307751927,0.7870081408069974,0.8474831799347711,0.002961378036847848,0.8356751604014743,0.5271136097950654,0.782277791888864,-0.1776188639080349,0.457136319970381,830.8424908424909,875.1648351648352,1022.637362637363,869.1208791208792,855.0183150183151,-0.211121,0.156921,0.952637,-5.824432,-9.271240,-9.839478,1,1,1,1,1,100.000000
2023-08-23 18:47:20.864,0.5514171881352848,0.9637448970791552,0.9229641081432516,1.169174109561433,0.1485977108367029,0.5276278848329753,0.1137626772234742,0.7609802456166026,0.7929819402203806,0.4698220440016369,-0.3221187918394778,0.617650307751927,0.8893888032307743,0.8474831799347711,0.002961378036847848,0.8356751604014743,0.599715558205313,0.782277791888864,-0.1776188639080349,0.457136319970381,855.0183150183151,829.6336996336996,999.2673992673992,868.7179487179487,588.2783882783883,-0.207764,0.046814,0.948547,-21.099548,-0.358887,40.972900,1,1,1,1,1,100.000000
2023-08-23 18:47:21.865,0.5514171881352848,0.9637448970791552,0.9229641081432516,1.169174109561433,0.1485977108367029,0.5276278848329753,0.1137626772234742,0.7609802456166026,0.7929819402203806,0.4698220440016369,-0.3221187918394778,0.617650307751927,0.8893888032307743,0.8474831799347711,0.002961378036847848,0.8356751604014743,0.599715558205313,0.782277791888864,-0.1776188639080349,0.457136319970381,810.2930402930403,858.2417582417582,1057.289377289377,861.0622710622711,765.9706959706959,-0.150635,0.019287,0.985718,-20.022888,9.622650,19.163055,1,1,1,1,1,100.000000
2023-08-23 18:47:22.339,,,,,,,,,,,,,,,,,,,,,,,,,,,,,,,,,,,,,,/muse/elements/blink
2023-08-23 18:47:22.799,,,,,,,,,,,,,,,,,,,,,,,,,,,,,,,,,,,,,,/muse/elements/blink
2023-08-23 18:47:22.865,0.5514171881352848,0.9637448970791552,0.9229641081432516,1.169174109561433,0.1485977108367029,0.5276278848329753,0.1137626772234742,0.7609802456166026,0.7929819402203806,0.4698220440016369,-0.3221187918394778,0.617650307751927,0.8893888032307743,0.8474831799347711,0.002961378036847848,0.8356751604014743,0.599715558205313,0.782277791888864,-0.1776188639080349,0.457136319970381,888.8644688644689,927.5457875457876,935.2014652014652,925.1282051282052,801.8315018315019,-0.331116,-0.006470,0.925537,-8.860016,32.546539,8.740387,1,2,1,1,2,100.000000
2023-08-23 18:47:23.873,0.5514171881352848,0.9637448970791552,0.9229641081432516,1.169174109561433,0.1485977108367029,0.5276278848329753,0.1137626772234742,0.7609802456166026,0.7929819402203806,0.4698220440016369,-0.3221187918394778,0.617650307751927,0.8893888032307743,0.8474831799347711,0.002961378036847848,0.8356751604014743,0.599715558205313,0.782277791888864,-0.1776188639080349,0.457136319970381,861.8681318681319,879.5970695970697,947.6923076923077,909.8168498168499,642.6739926739926,-0.331726,0.032043,0.946289,-1.689758,-2.983246,-0.650482,1,2,1,1,2,100.000000
2023-08-23 18:47:24.865,0.9232959455122125,0.9637448970791552,0.9229641081432516,1.169174109561433,0.5404585904604825,0.5276278848329753,0.1137626772234742,0.7609802456166026,0.3474467190739426,0.4698220440016369,-0.3221187918394778,0.617650307751927,0.6181128204716561,0.8474831799347711,0.002961378036847848,0.8356751604014743,0.63051598520923,0.782277791888864,-0.1776188639080349,0.457136319970381,835.6776556776557,864.6886446886447,755.8974358974359,859.8534798534798,682.1611721611722,-0.313110,0.012573,0.940186,3.865509,-3.229980,0.022430,1,1,1,1,1,100.000000
2023-08-23 18:47:24.871,,,,,,,,,,,,,,,,,,,,,,,,,,,,,,,,,,,,,,/muse/elements/blink
2023-08-23 18:47:25.849,,,,,,,,,,,,,,,,,,,,,,,,,,,,,,,,,,,,,,/muse/elements/blink
2023-08-23 18:47:25.865,0.8780390894637875,0.9637448970791552,0.9229641081432516,1.169174109561433,0.4486482339139103,0.5276278848329753,0.1137626772234742,0.7609802456166026,0.2885335981948204,0.4698220440016369,-0.3221187918394778,0.617650307751927,0.6197574540573567,0.8474831799347711,0.002961378036847848,0.8356751604014743,0.6161193524015606,0.782277791888864,-0.1776188639080349,0.457136319970381,856.2271062271062,925.5311355311355,858.6446886446887,930.7692307692308,618.0952380952381,-0.384827,-0.011963,0.907104,-4.097290,0.299072,12.396545,1,1,1,1,1,100.000000
2023-08-23 18:47:26.711,,,,,,,,,,,,,,,,,,,,,,,,,,,,,,,,,,,,,,/muse/elements/jaw_clench
2023-08-23 18:47:26.865,1.049449921480766,0.9637448970791552,0.9229641081432516,1.169174109561433,0.9161772828208374,0.5276278848329753,0.1137626772234742,0.7609802456166026,0.8681314567204028,0.4698220440016369,-0.3221187918394778,0.617650307751927,0.8941844637872972,0.8474831799347711,0.002961378036847848,0.8356751604014743,0.7067835743663756,0.782277791888864,-0.1776188639080349,0.457136319970381,832.0512820512821,823.5897435897436,794.981684981685,871.941391941392,753.4798534798535,-0.310364,0.096619,0.927734,-11.469421,-12.396545,21.181793,1,1,1,1,1,100.000000
2023-08-23 18:47:27.867,0.9927764102120765,0.9637448970791552,0.9229641081432516,1.169174109561433,0.8859517299661832,0.5276278848329753,0.1137626772234742,0.7609802456166026,0.9187679717527547,0.4698220440016369,-0.3221187918394778,0.617650307751927,0.973754115130764,0.8474831799347711,0.002961378036847848,0.8356751604014743,0.8450066463070819,0.782277791888864,-0.1776188639080349,0.457136319970381,875.5677655677656,923.5164835164835,825.2014652014652,903.3699633699634,723.2600732600732,-0.296570,0.029053,0.938110,-4.830017,-13.817139,6.287994,1,1,1,1,1,100.000000
2023-08-23 18:47:28.865,1.365892436143164,0.9637448970791552,0.9229641081432516,1.169174109561433,0.9368447828607238,0.5276278848329753,0.1137626772234742,0.7609802456166026,0.9817973982965192,0.4698220440016369,-0.3221187918394778,0.617650307751927,0.8141465160325477,0.8474831799347711,0.002961378036847848,0.8356751604014743,0.9180057270764018,0.782277791888864,-0.1776188639080349,0.457136319970381,854.2124542124542,852.6007326007326,911.0256410256411,906.5934065934066,1042.783882783883,-0.260071,0.106140,0.945740,20.254669,-6.975861,-13.847046,1,1,1,1,1,100.000000
2023-08-23 18:47:29.865,0.949561257323447,0.9637448970791552,0.9229641081432516,0.6338991042248634,0.5974923032623055,0.5276278848329753,0.1137626772234742,0.6569512092068717,0.5515739156715453,0.4698220440016369,-0.3221187918394778,0.8685359863645515,0.6723297898444249,0.8474831799347711,0.002961378036847848,0.7881655544335787,0.607553018109277,0.782277791888864,-0.1776188639080349,0.4095651749714613,856.2271062271062,887.2527472527473,918.2783882783883,880.4029304029305,669.6703296703297,-0.166687,0.102966,0.971802,1.652374,-2.332764,0.104675,1,1,1,1,1,100.000000
2023-08-23 18:47:30.338,,,,,,,,,,,,,,,,,,,,,,,,,,,,,,,,,,,,,,/muse/elements/blink
2023-08-23 18:47:30.449,,,,,,,,,,,,,,,,,,,,,,,,,,,,,,,,,,,,,,/muse/elements/jaw_clench
2023-08-23 18:47:30.865,0.9158065619257649,0.9637448970791552,0.9229641081432516,0.715622142530995,0.6772631103553903,0.5276278848329753,0.1137626772234742,0.9313906329283438,0.5283852934287844,0.4698220440016369,-0.3221187918394778,0.8362306828696939,0.680855435190638,0.8474831799347711,0.002961378036847848,0.7230844093742883,0.6220190389734513,0.782277791888864,-0.1776188639080349,0.3803003561220645,817.1428571428571,872.7472527472528,893.2967032967033,875.9706959706959,757.9120879120879,-0.518311,0.035095,0.866699,2.130890,-25.092163,-6.631927,1,1,1,1,1,100.000000
2023-08-23 18:47:31.459,,,,,,,,,,,,,,,,,,,,,,,,,,,,,,,,,,,,,,/muse/elements/blink
2023-08-23 18:47:31.872,0.8015019038991184,0.9637448970791552,0.9229641081432516,0.7261556208882534,0.7766903098033505,0.5276278848329753,0.1137626772234742,1.104063144194268,0.5043230326695363,0.4698220440016369,-0.3221187918394778,0.7855080532270615,0.7338599401909204,0.8474831799347711,0.002961378036847848,0.7682878643031037,0.488516798423703,0.782277791888864,-0.1776188639080349,0.3929112778169057,870.7326007326008,880.4029304029305,956.959706959707,914.6520146520147,868.3150183150184,-0.279297,-0.007996,0.947754,1.256104,1.809387,4.164581,1,1,1,1,1,100.000000
2023-08-23 18:47:32.864,0.8015019038991184,0.9637448970791552,0.9229641081432516,0.8321049130536635,0.7766903098033505,0.5276278848329753,0.1137626772234742,1.337648179001776,0.5043230326695363,0.4698220440016369,-0.3221187918394778,0.8958828408463889,0.7338599401909204,0.8474831799347711,0.002961378036847848,0.8348347117924484,0.488516798423703,0.782277791888864,-0.1776188639080349,0.5600016230088599,862.2710622710623,905.3846153846154,880.8058608058608,860.6593406593407,680.5494505494506,-0.296875,-0.000549,0.936951,-0.261688,-7.439423,-12.463837,1,1,1,1,1,100.000000
2023-08-23 18:47:33.865,0.8015019038991184,0.9637448970791552,0.9229641081432516,1.070256634061313,0.7766903098033505,0.5276278848329753,0.1137626772234742,0.7386572537883984,0.5043230326695363,0.4698220440016369,-0.3221187918394778,0.4113016357786001,0.7338599401909204,0.8474831799347711,0.002961378036847848,0.8213023111843539,0.488516798423703,0.782277791888864,-0.1776188639080349,0.680281602757949,879.5970695970697,907.8021978021978,890.8791208791209,929.1575091575091,841.3186813186813,-0.266846,-0.014038,0.945740,-4.381409,-0.986938,25.981903,1,1,1,1,1,100.000000
2023-08-23 18:47:34.872,1.074811271726775,0.9637448970791552,0.9229641081432516,1.180109062500218,0.6737132426764705,0.5276278848329753,0.1137626772234742,0.511759597725193,0.6964247064752502,0.4698220440016369,-0.3221187918394778,0.421683313908747,0.6032153994269652,0.8474831799347711,0.002961378036847848,0.9155995292164437,0.4712467244762558,0.782277791888864,-0.1776188639080349,0.6371975297602651,826.8131868131868,846.959706959707,793.7728937728938,860.6593406593407,944.4688644688645,-0.251526,0.028625,0.949402,3.035583,-1.099091,-5.495453,1,1,1,1,1,100.000000
2023-08-23 18:47:35.865,1.419468653888953,0.9637448970791552,0.9229641081432516,1.162170311697751,0.6095362261358348,0.5276278848329753,0.1137626772234742,0.501401275393941,0.8054645107839489,0.4698220440016369,-0.3221187918394778,0.6862641629682515,0.7212963079519665,0.8474831799347711,0.002961378036847848,0.7953333281996825,0.4499868151891715,0.782277791888864,-0.1776188639080349,0.4326723636604282,858.6446886446887,878.3882783882784,897.7289377289378,873.956043956044,690.6227106227107,-0.198181,0.134338,0.949585,5.630035,-2.639313,4.201965,1,1,1,1,1,100.000000
2023-08-23 18:47:36.865,0.946587461262283,0.9637448970791552,0.9229641081432516,0.9541087569725003,0.3897190226237545,0.5276278848329753,0.1137626772234742,0.5208774874323024,0.8154229490746142,0.4698220440016369,-0.3221187918394778,0.6147265773604448,0.6282210171714482,0.8474831799347711,0.002961378036847848,0.5650528839862549,0.5449720198047712,0.782277791888864,-0.1776188639080349,0.4926880511431038,858.6446886446887,882.4175824175825,884.4322344322345,892.893772893773,828.4249084249085,-0.190613,0.162964,0.958435,6.310425,2.265472,-11.693726,1,1,1,1,1,100.000000
2023-08-23 18:47:37.750,,,,,,,,,,,,,,,,,,,,,,,,,,,,,,,,,,,,,,/muse/elements/blink
2023-08-23 18:47:37.864,0.4506563822735835,0.9637448970791552,0.9229641081432516,0.8194170966417563,0.1926072872477074,0.5276278848329753,0.1137626772234742,0.3783202811757349,0.793143274941164,0.4698220440016369,-0.3221187918394778,0.7231288214543171,0.7453689548175286,0.8474831799347711,0.002961378036847848,0.6073847966127189,0.5525922409685323,0.782277791888864,-0.1776188639080349,0.4181211664678905,811.9047619047619,810.6959706959707,823.5897435897436,811.0989010989011,948.4981684981685,-0.249939,0.113281,0.954651,1.338348,5.069275,-14.370422,1,1,1,1,1,100.000000
2023-08-23 18:47:38.865,0.7449513894570566,0.9637448970791552,0.9229641081432516,1.17364960936748,0.4846034026632852,0.5276278848329753,0.1137626772234742,0.6446401631538456,0.8052454993049787,0.4698220440016369,-0.3221187918394778,0.7414627844713541,0.8469186212728903,0.8474831799347711,0.002961378036847848,0.7079376895223323,0.5321745929118689,0.782277791888864,-0.1776188639080349,0.3783274669306971,827.2161172161173,838.901098901099,829.2307692307693,828.4249084249085,733.7362637362637,-0.313354,0.059753,0.931641,3.222504,-10.714264,-5.510406,1,1,1,1,1,100.000000
2023-08-23 18:47:39.391,,,,,,,,,,,,,,,,,,,,,,,,,,,,,,,,,,,,,,/muse/elements/blink
2023-08-23 18:47:39.865,0.7599845640127985,0.9637448970791552,0.9229641081432516,1.102958770120146,0.5773615955691576,0.5276278848329753,0.1137626772234742,0.8995909482187783,1.195192942399442,0.4698220440016369,-0.3221187918394778,0.8988737967531004,0.6773904847555946,0.8474831799347711,0.002961378036847848,0.7805036942228645,0.4754516697282544,0.782277791888864,-0.1776188639080349,0.2424522539166497,843.3333333333334,877.1794871794872,832.8571428571429,837.2893772893773,737.7655677655678,-0.276184,0.096252,0.945801,3.043060,-6.983337,-1.278534,1,1,1,1,1,100.000000
2023-08-23 18:47:40.865,1.037501842616964,0.5793482412608032,0.9229641081432516,1.351017032518003,0.7699957536380331,0.5094724598583514,0.1137626772234742,1.03675941423854,1.191351113905772,0.4229528861115458,-0.3221187918394778,0.9106203630454958,0.6458072060084601,1.114118283992612,0.002961378036847848,0.8405237160091388,0.4830281351791705,0.671733910921455,-0.1776188639080349,0.1316504446533611,757.9120879120879,691.4285714285714,728.0952380952381,744.6153846153846,767.985347985348,-0.212646,0.125610,0.972717,-7.319794,-3.730927,8.299255,1,1,1,1,1,100.000000
2023-08-23 18:47:41.865,0.9614726369812313,0.522643466318675,0.9229641081432516,1.037041643087442,0.6363458642201372,0.4218493178361545,0.1137626772234742,0.6197458145200422,0.8105885973401418,0.3654495580970921,-0.3221187918394778,0.7688208173636725,0.6636969109390312,1.197931180145455,0.002961378036847848,0.6117864570360956,0.3038540721047935,0.5817082676081634,-0.1776188639080349,0.1272371643440571,767.985347985348,757.9120879120879,741.3919413919414,753.0769230769231,739.3772893772893,-0.160828,0.077759,0.977966,0.164490,-4.620667,2.347717,1,1,1,1,1,100.000000
2023-08-23 18:47:42.822,,,,,,,,,,,,,,,,,,,,,,,,,,,,,,,,,,,,,,/muse/elements/blink
2023-08-23 18:47:42.865,0.6471927004295878,0.4713044798143717,0.9229641081432516,0.7614458104233527,0.7744153759280118,0.3618908868053986,0.1137626772234742,0.7130981182074594,0.7844721820749163,0.5799415681258344,-0.3221187918394778,0.578451450080441,0.5982670453273612,0.804973405585606,0.002961378036847848,0.4841212915029667,0.08024846199203758,0.6267202504267861,-0.1776188639080349,0.2301242645529203,788.1318681318681,776.0439560439561,781.2820512820513,780.0732600732601,830.8424908424909,-0.180542,0.028809,0.971252,-2.332764,8.934784,8.486176,1,1,1,1,1,100.000000
2023-08-23 18:47:43.865,1.152255801631288,0.6837424557143968,0.9229641081432516,0.2921795980371124,0.9668150484909203,0.2736645589461335,0.1137626772234742,0.7418711054237689,1.078383341872906,0.4904759597342991,-0.3221187918394778,0.5143495628081056,0.4695506735051794,0.8704132079470988,0.002961378036847848,0.4633629985154954,0.3399571108998232,0.5945164111683982,-0.1776188639080349,0.3255485832719941,742.6007326007326,709.9633699633699,684.981684981685,699.0842490842491,858.2417582417582,-0.189758,0.055115,0.960815,0.314026,-17.338715,16.912537,1,1,1,1,1,100.000000
2023-08-23 18:47:44.866,1.116111013083655,0.7081890333154089,0.9229641081432516,1.187524987233049,0.7558987296098147,0.1970246671772225,0.1137626772234742,0.7057978342361619,0.8956743307551608,0.4564631007952916,-0.3221187918394778,0.6926609832663402,0.4708573099387158,0.8466495833516976,0.002961378036847848,0.6035425958942791,0.5367024582072129,0.5059537999630086,-0.1776188639080349,0.5033616378518487,673.2967032967033,693.4432234432235,644.2857142857143,632.6007326007326,727.2893772893773,-0.188599,0.081360,0.975098,4.015045,-0.852356,5.286102,1,1,1,1,1,100.000000
2023-08-23 18:47:44.976,,,,,,,,,,,,,,,,,,,,,,,,,,,,,,,,,,,,,,/muse/elements/jaw_clench
2023-08-23 18:47:45.868,1.037034269270697,0.7081890333154089,0.9229641081432516,0.9635584760691867,0.942419290392004,0.1970246671772225,0.1137626772234742,0.8215900187637982,0.9100131431536725,0.4564631007952916,-0.3221187918394778,0.6354094198454758,0.5406862860244472,0.8466495833516976,0.002961378036847848,0.6879463189587236,0.5463863340503983,0.5059537999630086,-0.1776188639080349,0.4953177821106587,732.5274725274726,680.5494505494506,680.5494505494506,693.040293040293,853.4065934065934,-0.212341,0.102600,0.969849,3.237457,5.353394,0.859833,1,1,1,1,1,100.000000
2023-08-23 18:47:46.383,,,,,,,,,,,,,,,,,,,,,,,,,,,,,,,,,,,,,,/muse/elements/blink
2023-08-23 18:47:46.383,,,,,,,,,,,,,,,,,,,,,,,,,,,,,,,,,,,,,,/muse/elements/jaw_clench
2023-08-23 18:47:46.865,1.139606996584715,0.7081890333154089,0.9229641081432516,0.9867407189525775,1.060563348579647,0.1970246671772225,0.1137626772234742,0.8885488053397073,0.9097972522260225,0.4564631007952916,-0.3221187918394778,0.5740894852096128,0.6341241055758402,0.8466495833516976,0.002961378036847848,0.7283941550744217,0.5632210765381764,0.5059537999630086,-0.1776188639080349,0.5070014905087502,767.1794871794872,717.2161172161173,784.9084249084249,760.3296703296703,866.7032967032967,-0.085815,0.121033,0.995728,-2.444916,-10.475006,-7.102966,1,1,1,1,1,100.000000
2023-08-23 18:47:47.865,1.139606996584715,0.7081890333154089,0.9229641081432516,0.9867407189525775,1.060563348579647,0.1970246671772225,0.1137626772234742,0.8885488053397073,0.9097972522260225,0.4564631007952916,-0.3221187918394778,0.5740894852096128,0.6341241055758402,0.8466495833516976,0.002961378036847848,0.7283941550744217,0.5632210765381764,0.5059537999630086,-0.1776188639080349,0.5070014905087502,781.2820512820513,788.1318681318681,774.4322344322345,751.8681318681319,756.3003663003664,-0.235107,0.056580,0.983765,-7.603912,-4.650574,5.929108,1,2,1,1,2,100.000000
2023-08-23 18:47:48.864,1.240851167532943,0.7081890333154089,0.9229641081432516,1.122701363430179,0.5745136849852452,0.1970246671772225,0.1137626772234742,0.6494309673838461,0.6104161902019579,0.4564631007952916,-0.3221187918394778,0.5920873787413663,0.8426838777373478,0.8466495833516976,0.002961378036847848,0.4501903594632425,0.4826108397230219,0.5059537999630086,-0.1776188639080349,0.4986830093511598,824.3956043956044,809.0842490842491,801.025641025641,810.6959706959707,750.2564102564103,-0.206787,-0.062683,0.941345,-12.942352,3.020630,0.897217,1,1,1,1,1,100.000000
2023-08-23 18:47:49.865,1.302956398307809,0.7081890333154089,0.9229641081432516,1.157794911803071,0.4323256467344926,0.1970246671772225,0.1137626772234742,0.6763842158411519,0.6407073470215188,0.4564631007952916,-0.3221187918394778,0.8196370058806189,0.8337310367740371,0.8466495833516976,0.002961378036847848,0.5730761260837235,0.5693255718160544,0.5059537999630086,-0.1776188639080349,0.5869659233136446,853.8095238095239,840.5128205128206,867.1062271062272,851.7948717948718,741.7948717948718,-0.153503,-0.097107,0.971130,0.082245,-10.729218,-5.196381,1,1,1,1,1,100.000000
2023-08-23 18:47:50.865,1.211671423267143,0.7081890333154089,0.9229641081432516,1.258490216524692,0.7730939967729716,0.1970246671772225,0.1137626772234742,0.8771165820839185,0.9652746018335745,0.4564631007952916,-0.3221187918394778,0.8041126493356072,0.590912598222363,0.8466495833516976,0.002961378036847848,0.6818511554629095,0.4538320686741073,0.5059537999630086,-0.1776188639080349,0.3873815882586663,764.3589743589744,753.4798534798535,729.3040293040293,741.7948717948718,784.5054945054945,-0.100098,-0.061279,0.984802,10.123596,-1.158905,0.328979,1,1,1,1,1,100.000000
2023-08-23 18:47:51.865,1.101675220631346,0.7081890333154089,0.9229641081432516,1.048507787725415,0.6699040560439538,0.1970246671772225,0.1137626772234742,0.4553095306774645,0.6906176226225103,0.4564631007952916,-0.3221187918394778,0.4932227118593424,0.5926141107400194,0.8466495833516976,0.002961378036847848,0.6572745752832154,0.5048724725912597,0.5059537999630086,-0.1776188639080349,0.2622886413534542,714.3956043956044,694.2490842490843,640.6593406593407,680.5494505494506,730.9157509157509,-0.119995,-0.005615,0.983093,-2.586975,-4.089813,11.170349,1,1,1,1,1,100.000000
2023-08-23 18:47:52.865,1.191667467266557,0.7081890333154089,0.9229641081432516,1.07315025319857,0.6773669624760997,0.1970246671772225,0.1137626772234742,0.5585050173171188,0.7132386500112661,0.4564631007952916,-0.3221187918394778,0.4652841473911479,0.6458096722998817,0.8466495833516976,0.002961378036847848,0.6780349125138891,0.4071205959174685,0.5059537999630086,-0.1776188639080349,0.1231798572056855,738.974358974359,714.7985347985348,620.9157509157509,716.4102564102565,940.4395604395605,-0.218140,-0.005493,0.961731,2.796326,6.691742,-0.755157,1,1,1,1,1,100.000000
2023-08-23 18:47:52.891,,,,,,,,,,,,,,,,,,,,,,,,,,,,,,,,,,,,,,/muse/elements/blink
2023-08-23 18:47:53.088,,,,,,,,,,,,,,,,,,,,,,,,,,,,,,,,,,,,,,/muse/elements/blink
2023-08-23 18:47:53.864,1.266022690885408,0.7081890333154089,0.9229641081432516,1.07315025319857,0.5736336861825648,0.1970246671772225,0.1137626772234742,0.5585050173171188,0.7132386500112661,0.4564631007952916,-0.3221187918394778,0.4652841473911479,0.6750031803971565,0.8466495833516976,0.002961378036847848,0.6780349125138891,0.4145825840717043,0.5059537999630086,-0.1776188639080349,0.1231798572056855,817.5457875457876,779.6703296703297,801.4285714285714,802.6373626373627,702.7106227106227,0.000977,-0.049011,0.989746,2.504730,-16.351776,16.000366,1,1,1,1,1,100.000000
2023-08-23 18:47:54.481,,,,,,,,,,,,,,,,,,,,,,,,,,,,,,,,,,,,,,/muse/elements/blink
2023-08-23 18:47:54.617,,,,,,,,,,,,,,,,,,,,,,,,,,,,,,,,,,,,,,/muse/elements/jaw_clench
2023-08-23 18:47:54.867,1.266022690885408,0.7081890333154089,0.9229641081432516,1.07315025319857,0.5736336861825648,0.1970246671772225,0.1137626772234742,0.5585050173171188,0.7132386500112661,0.4564631007952916,-0.3221187918394778,0.4652841473911479,0.6750031803971565,0.8466495833516976,0.002961378036847848,0.6780349125138891,0.4145825840717043,0.5059537999630086,-0.1776188639080349,0.1231798572056855,709.1575091575091,668.4615384615385,631.7948717948718,697.4725274725275,677.7289377289377,-0.150818,-0.028748,0.980530,12.561035,6.415100,-10.273132,1,2,1,1,2,100.000000
2023-08-23 18:47:55.098,,,,,,,,,,,,,,,,,,,,,,,,,,,,,,,,,,,,,,/muse/elements/blink
2023-08-23 18:47:55.426,,,,,,,,,,,,,,,,,,,,,,,,,,,,,,,,,,,,,,/muse/elements/jaw_clench
2023-08-23 18:47:55.515,,,,,,,,,,,,,,,,,,,,,,,,,,,,,,,,,,,,,,/muse/elements/blink
2023-08-23 18:47:55.713,,,,,,,,,,,,,,,,,,,,,,,,,,,,,,,,,,,,,,/muse/elements/blink
2023-08-23 18:47:55.864,1.266022690885408,0.7081890333154089,0.9229641081432516,1.07315025319857,0.5736336861825648,0.1970246671772225,0.1137626772234742,0.5585050173171188,0.7132386500112661,0.4564631007952916,-0.3221187918394778,0.4652841473911479,0.6750031803971565,0.8466495833516976,0.002961378036847848,0.6780349125138891,0.4145825840717043,0.5059537999630086,-0.1776188639080349,0.1231798572056855,727.6923076923077,699.8901098901099,774.4322344322345,732.9304029304029,788.9377289377289,-0.720642,0.132751,0.661255,20.673370,-0.029907,-9.757233,1,2,1,1,2,100.000000
2023-08-23 18:47:56.463,,,,,,,,,,,,,,,,,,,,,,,,,,,,,,,,,,,,,,/muse/elements/blink
2023-08-23 18:47:56.840,,,,,,,,,,,,,,,,,,,,,,,,,,,,,,,,,,,,,,/muse/elements/jaw_clench
2023-08-23 18:47:56.864,1.266022690885408,0.7081890333154089,0.9229641081432516,1.07315025319857,0.5736336861825648,0.1970246671772225,0.1137626772234742,0.5585050173171188,0.7132386500112661,0.4564631007952916,-0.3221187918394778,0.4652841473911479,0.6750031803971565,0.8466495833516976,0.002961378036847848,0.6780349125138891,0.4145825840717043,0.5059537999630086,-0.1776188639080349,0.1231798572056855,782.0879120879121,792.5641025641025,982.3443223443223,784.1025641025641,716.4102564102565,-0.508911,0.121948,0.859558,-2.392578,16.105042,4.194489,1,2,1,1,2,100.000000
2023-08-23 18:47:57.464,,,,,,,,,,,,,,,,,,,,,,,,,,,,,,,,,,,,,,/muse/elements/jaw_clench
2023-08-23 18:47:57.877,1.266022690885408,0.7081890333154089,0.9229641081432516,1.647182020751355,0.5736336861825648,0.1970246671772225,0.1137626772234742,1.481118080133123,0.7132386500112661,0.4564631007952916,-0.3221187918394778,1.08358150614424,0.6750031803971565,0.8466495833516976,0.002961378036847848,1.132690581418772,0.4145825840717043,0.5059537999630086,-0.1776188639080349,0.4128614124312523,683.7728937728938,666.0439560439561,751.4652014652015,674.9084249084249,771.2087912087912,-0.615601,0.130615,0.777527,-1.674805,-10.048828,5.562744,1,1,1,1,1,100.000000
2023-08-23 18:47:58.468,,,,,,,,,,,,,,,,,,,,,,,,,,,,,,,,,,,,,,/muse/elements/jaw_clench
2023-08-23 18:47:58.671,,,,,,,,,,,,,,,,,,,,,,,,,,,,,,,,,,,,,,/muse/elements/jaw_clench
2023-08-23 18:47:58.863,1.145574407740145,0.7081890333154089,0.9229641081432516,1.211756213562572,0.6217887576855,0.1970246671772225,0.1137626772234742,0.9125646858732142,0.8793566116353697,0.4564631007952916,-0.3221187918394778,0.9713174248076434,1.076542851715789,0.8466495833516976,0.002961378036847848,0.8311595976869496,0.9128215438883533,0.5059537999630086,-0.1776188639080349,0.6412183533822394,722.0512820512821,689.0109890109891,740.989010989011,703.919413919414,859.047619047619,-0.438660,0.185120,0.831726,-12.261963,-10.893707,3.805695,1,1,1,1,1,100.000000
2023-08-23 18:47:59.864,1.14958797957672,0.7081890333154089,0.9229641081432516,1.250146242089813,0.6808542736166356,0.1970246671772225,0.1137626772234742,0.7670469461199334,0.9161647002786854,0.4564631007952916,-0.3221187918394778,0.929219707857406,0.9585829818271114,0.8466495833516976,0.002961378036847848,0.6471394153588421,0.7818764186035618,0.5059537999630086,-0.1776188639080349,0.6612731956281892,751.8681318681319,733.3333333333334,705.934065934066,712.3809523809524,734.9450549450549,-0.374023,0.155273,0.890198,-6.916046,-12.067566,6.699219,1,1,1,1,1,100.000000
2023-08-23 18:48:00.871,1.246465959830057,0.7081890333154089,0.9229641081432516,1.439067130939715,1.399820088047167,0.1970246671772225,0.1137626772234742,1.288457450314232,0.7000437400044864,0.4564631007952916,-0.3221187918394778,0.8630983559553901,0.771130194009936,0.8466495833516976,0.002961378036847848,0.6856828285624271,0.4693306601369142,0.5059537999630086,-0.1776188639080349,0.4440892175248612,678.9377289377289,690.6227106227107,686.996336996337,655.1648351648352,938.8278388278388,-0.322632,0.208130,0.942322,8.426361,-10.699310,-10.759125,1,1,1,1,1,100.000000
2023-08-23 18:48:01.503,,,,,,,,,,,,,,,,,,,,,,,,,,,,,,,,,,,,,,/muse/elements/jaw_clench
2023-08-23 18:48:01.864,1.360800904401589,0.7081890333154089,0.9229641081432516,1.322730438068174,1.20947765041752,0.1970246671772225,0.1137626772234742,1.050346263457352,0.7485937955916503,0.4564631007952916,-0.3221187918394778,0.8482134210757902,0.7478934642803421,0.8466495833516976,0.002961378036847848,0.7029014082270766,0.4764015070088388,0.5059537999630086,-0.1776188639080349,0.5047992066002105,677.7289377289377,676.5201465201466,680.952380952381,614.4688644688645,810.6959706959707,-0.213379,0.156250,0.961792,8.673096,-4.949646,-4.067383,1,1,1,1,1,100.000000
2023-08-23 18:48:02.864,1.356875339920205,0.7081890333154089,0.9229641081432516,1.370571928699028,1.052034522583495,0.1970246671772225,0.1137626772234742,0.848490646897484,0.6807636833340494,0.4564631007952916,-0.3221187918394778,0.6611884915694127,0.7579585901240747,0.8466495833516976,0.002961378036847848,0.6454487685646121,0.4794553876654564,0.5059537999630086,-0.1776188639080349,0.5842376099954263,786.9230769230769,707.1428571428571,748.6446886446887,757.9120879120879,794.981684981685,-0.215698,0.263184,0.944092,5.936584,-12.179718,-47.245941,1,1,1,1,1,100.000000
2023-08-23 18:48:03.864,1.356875339920205,0.7081890333154089,0.9229641081432516,1.370571928699028,1.052034522583495,0.1970246671772225,0.1137626772234742,0.848490646897484,0.6807636833340494,0.4564631007952916,-0.3221187918394778,0.6611884915694127,0.7579585901240747,0.8466495833516976,0.002961378036847848,0.6454487685646121,0.4794553876654564,0.5059537999630086,-0.1776188639080349,0.5842376099954263,767.1794871794872,779.2673992673992,770.4029304029305,760.3296703296703,958.1684981684982,-0.261047,0.172607,0.949402,-9.779663,-14.946136,11.476898,1,1,1,1,1,100.000000
2023-08-23 18:48:04.864,0.9406852947341779,0.7081890333154089,0.9229641081432516,0.8121611695896231,0.3103507925039489,0.1970246671772225,0.1137626772234742,0.4850376022591771,0.601690503749914,0.4564631007952916,-0.3221187918394778,0.489226343387793,0.8849084895786412,0.8466495833516976,0.002961378036847848,0.4013450685420012,0.6995448218429808,0.5059537999630086,-0.1776188639080349,0.4961820052315342,739.3772893772893,731.7216117216118,763.5531135531136,723.2600732600732,786.1172161172161,-0.189453,0.188110,0.950500,1.764526,0.448608,0.134583,1,1,1,1,1,100.000000
2023-08-23 18:48:05.865,0.95099851410626,0.7081890333154089,0.9229641081432516,0.7423493508559448,0.4754689084547835,0.1970246671772225,0.1137626772234742,0.3920835077446294,0.4720164128371854,0.4564631007952916,-0.3221187918394778,0.477808569696942,0.7782224684992007,0.8466495833516976,0.002961378036847848,0.3571452669143436,0.5897256428285256,0.5059537999630086,-0.1776188639080349,0.4778806832919986,731.3186813186813,704.3223443223443,711.5750915750916,694.2490842490843,662.4175824175825,-0.203674,0.191101,0.959717,-1.689758,-3.603821,1.368256,1,1,1,1,1,100.000000
2023-08-23 18:48:06.868,1.049919191176764,0.7081890333154089,0.9229641081432516,0.7423493508559448,0.8370024707950879,0.1970246671772225,0.1137626772234742,0.3920835077446294,0.9790073079751155,0.4564631007952916,-0.3221187918394778,0.477808569696942,0.646258022480254,0.8466495833516976,0.002961378036847848,0.3571452669143436,0.4320166400274177,0.5059537999630086,-0.1776188639080349,0.4778806832919986,709.1575091575091,653.1501831501831,670.8791208791209,671.2820512820513,814.7252747252747,-0.191772,0.147461,0.952393,4.687958,-3.745880,-0.643005,1,1,1,1,1,100.000000
2023-08-23 18:48:07.864,1.257417806847933,0.7081890333154089,0.9229641081432516,0.8039259369587566,0.7891145480691368,0.1970246671772225,0.1137626772234742,0.6054979179355363,1.039481378722179,0.4564631007952916,-0.3221187918394778,1.009257801018965,0.7036481014940164,0.8466495833516976,0.002961378036847848,0.9051331526109697,0.6778295456563674,0.5059537999630086,-0.1776188639080349,0.649078149063866,704.7252747252747,662.8205128205128,685.7875457875458,675.7142857142858,819.96336996337,-0.164246,0.181946,0.953186,8.104858,-2.183228,-4.082336,1,1,1,1,1,100.000000
2023-08-23 18:48:08.408,,,,,,,,,,,,,,,,,,,,,,,,,,,,,,,,,,,,,,/muse/elements/blink
2023-08-23 18:48:08.629,,,,,,,,,,,,,,,,,,,,,,,,,,,,,,,,,,,,,,/muse/elements/jaw_clench
2023-08-23 18:48:08.826,,,,,,,,,,,,,,,,,,,,,,,,,,,,,,,,,,,,,,/muse/elements/blink
2023-08-23 18:48:08.864,1.44253807784384,0.7081890333154089,0.9229641081432516,0.8389432291735645,0.8632541757370552,0.1970246671772225,0.1137626772234742,0.4802934609921546,0.8957925399229238,0.4564631007952916,-0.3221187918394778,0.7543821109708055,0.7578669174435577,0.8466495833516976,0.002961378036847848,0.8646189297986225,0.84154124003493,0.5059537999630086,-0.1776188639080349,0.7351098235772224,749.4505494505495,670.4761904761905,510.5128205128206,726.0805860805862,795.3846153846154,-0.640076,0.129211,0.746826,6.542206,21.047211,-13.181610,1,1,1,1,1,100.000000
2023-08-23 18:48:08.916,,,,,,,,,,,,,,,,,,,,,,,,,,,,,,,,,,,,,,/muse/elements/jaw_clench
2023-08-23 18:48:09.864,1.50239011442332,0.7081890333154089,0.9229641081432516,0.8389432291735645,0.8853638123733431,0.1970246671772225,0.1137626772234742,0.4802934609921546,0.8957925399229238,0.4564631007952916,-0.3221187918394778,0.7543821109708055,0.7951117613482944,0.8466495833516976,0.002961378036847848,0.8646189297986225,0.8550415121427369,0.5059537999630086,-0.1776188639080349,0.7351098235772224,728.0952380952381,679.3406593406594,641.8681318681319,712.3809523809524,729.7069597069598,-0.694092,0.015503,0.706360,7.559052,-7.865601,-8.620758,1,1,1,1,1,100.000000
2023-08-23 18:48:10.864,1.129558766284405,0.7081890333154089,0.9229641081432516,0.8389432291735645,0.5848262931525381,0.1970246671772225,0.1137626772234742,0.4802934609921546,0.7842418408772153,0.4564631007952916,-0.3221187918394778,0.7543821109708055,0.6905789737384816,0.8466495833516976,0.002961378036847848,0.8646189297986225,0.940019999904295,0.5059537999630086,-0.1776188639080349,0.7351098235772224,724.8717948717949,686.5934065934066,607.2161172161173,702.3076923076924,806.2637362637363,-0.526917,-0.012695,0.824219,-9.473114,-24.643555,18.004150,1,1,1,1,1,100.000000
2023-08-23 18:48:11.863,1.223209025931467,0.7081890333154089,0.9229641081432516,1.319087056636897,0.9952100426863336,0.1970246671772225,0.1137626772234742,0.8832772725410281,1.197919840192508,0.4564631007952916,-0.3221187918394778,1.175203564549799,0.7483542209062836,0.8466495833516976,0.002961378036847848,0.7117866503230325,0.87041136272876,0.5059537999630086,-0.1776188639080349,0.5349742681425781,682.1611721611722,661.6117216117216,647.9120879120879,662.4175824175825,730.9157509157509,-0.422974,0.052307,0.879761,4.306641,-4.284210,-10.273132,1,1,1,1,1,100.000000
2023-08-23 18:48:12.873,1.029640055726795,0.7081890333154089,0.9229641081432516,0.6589298841458959,0.780309781937874,0.1970246671772225,0.1137626772234742,0.2462659981299995,1.221704412613383,0.4564631007952916,-0.3221187918394778,0.5132679431849468,0.7255912939812386,0.8466495833516976,0.002961378036847848,0.7447094821536261,0.6758881371847762,0.5059537999630086,-0.1776188639080349,0.7120374814099519,761.1355311355312,745.4212454212454,767.985347985348,759.5238095238095,762.3443223443223,-0.401672,0.093140,0.903870,0.224304,-4.299164,4.852448,1,1,1,1,1,100.000000
2023-08-23 18:48:13.792,,,,,,,,,,,,,,,,,,,,,,,,,,,,,,,,,,,,,,/muse/elements/blink
2023-08-23 18:48:13.864,0.8309844439642211,0.7081890333154089,0.9229641081432516,0.6877259182950921,0.211845262850819,0.1970246671772225,0.1137626772234742,0.1184672713128388,0.5686575157112254,0.4564631007952916,-0.3221187918394778,0.05296102285643677,0.814245353017635,0.8466495833516976,0.002961378036847848,0.6788856537354842,0.6240449432509537,0.5059537999630086,-0.1776188639080349,0.7554568084167246,859.8534798534798,784.9084249084249,997.6556776556777,804.2490842490843,728.0952380952381,-0.516785,0.056946,0.849121,5.129089,10.003967,-13.473206,1,1,1,1,1,100.000000
2023-08-23 18:48:14.325,,,,,,,,,,,,,,,,,,,,,,,,,,,,,,,,,,,,,,/muse/elements/blink
2023-08-23 18:48:14.874,0.923855837819435,0.7081890333154089,0.9229641081432516,0.6877259182950921,0.1109337915446793,0.1970246671772225,0.1137626772234742,0.1184672713128388,0.5314488673164528,0.4564631007952916,-0.3221187918394778,0.05296102285643677,0.8442175904184313,0.8466495833516976,0.002961378036847848,0.6788856537354842,0.4435990326623293,0.5059537999630086,-0.1776188639080349,0.7554568084167246,841.7216117216118,861.8681318681319,877.985347985348,831.6483516483516,790.952380952381,-0.574463,0.074463,0.808289,0.732727,-5.674896,-3.566437,1,1,1,1,1,100.000000
2023-08-23 18:48:15.873,0.923855837819435,0.7081890333154089,0.9229641081432516,0.6877259182950921,0.1109337915446793,0.1970246671772225,0.1137626772234742,0.1184672713128388,0.5314488673164528,0.4564631007952916,-0.3221187918394778,0.05296102285643677,0.8442175904184313,0.8466495833516976,0.002961378036847848,0.6788856537354842,0.4435990326623293,0.5059537999630086,-0.1776188639080349,0.7554568084167246,771.6117216117216,793.7728937728938,834.0659340659341,784.1025641025641,702.3076923076924,-0.511719,0.063110,0.854370,1.495361,-15.417175,1.764526,1,1,1,1,1,100.000000
2023-08-23 18:48:16.349,,,,,,,,,,,,,,,,,,,,,,,,,,,,,,,,,,,,,,/muse/elements/blink
2023-08-23 18:48:16.864,0.923855837819435,0.5368824113229658,0.9229641081432516,0.6877259182950921,0.1109337915446793,0.2279865226208831,0.1137626772234742,0.1184672713128388,0.5314488673164528,0.4782980149765335,-0.3221187918394778,0.05296102285643677,0.8442175904184313,1.354178867464069,0.002961378036847848,0.6788856537354842,0.4435990326623293,1.235157324196872,-0.1776188639080349,0.7554568084167246,755.8974358974359,773.2234432234433,822.3809523809524,770.4029304029305,798.2051282051282,-0.659485,0.132568,0.731750,0.934601,-4.411316,-3.828125,1,2,1,1,2,100.000000
2023-08-23 18:48:17.781,,,,,,,,,,,,,,,,,,,,,,,,,,,,,,,,,,,,,,/muse/elements/blink
2023-08-23 18:48:17.864,0.8569479333853487,0.5460208512814491,0.9229641081432516,0.6877259182950921,0.5083510501045564,0.2040929207839557,0.1137626772234742,0.1184672713128388,0.3253187742807476,0.2885724412490721,-0.3221187918394778,0.05296102285643677,0.7914346981254192,1.358588425994888,0.002961378036847848,0.6788856537354842,0.5651119359173709,1.201747479351935,-0.1776188639080349,0.7554568084167246,744.6153846153846,717.2161172161173,713.992673992674,740.989010989011,707.948717948718,-0.607422,0.126892,0.775574,3.005676,-5.196381,0.523376,1,1,1,1,1,100.000000
2023-08-23 18:48:18.241,,,,,,,,,,,,,,,,,,,,,,,,,,,,,,,,,,,,,,/muse/elements/blink
2023-08-23 18:48:18.682,,,,,,,,,,,,,,,,,,,,,,,,,,,,,,,,,,,,,,/muse/elements/blink
2023-08-23 18:48:18.871,0.8569479333853487,0.5460208512814491,0.9229641081432516,0.6877259182950921,0.5083510501045564,0.2040929207839557,0.1137626772234742,0.1184672713128388,0.3253187742807476,0.2885724412490721,-0.3221187918394778,0.05296102285643677,0.7914346981254192,1.358588425994888,0.002961378036847848,0.6788856537354842,0.5651119359173709,1.201747479351935,-0.1776188639080349,0.7554568084167246,808.6813186813187,791.3553113553114,885.6410256410256,846.959706959707,717.6190476190476,-0.526672,0.129639,0.835754,1.151428,-8.104858,7.439423,1,1,1,1,1,100.000000
2023-08-23 18:48:19.871,1.334774457605679,0.5460208512814491,0.9229641081432516,0.6877259182950921,0.5854076354632283,0.2040929207839557,0.1137626772234742,0.1184672713128388,0.5969571486309211,0.2885724412490721,-0.3221187918394778,0.05296102285643677,0.7964303457624933,1.358588425994888,0.002961378036847848,0.6788856537354842,0.6216720528633443,1.201747479351935,-0.1776188639080349,0.7554568084167246,813.1135531135532,791.7582417582418,765.5677655677656,814.3223443223443,785.7142857142858,-0.378906,0.040405,0.909363,1.869202,-22.639771,-41.339264,1,1,1,1,1,100.000000
2023-08-23 18:48:19.973,,,,,,,,,,,,,,,,,,,,,,,,,,,,,,,,,,,,,,/muse/elements/jaw_clench
2023-08-23 18:48:20.531,,,,,,,,,,,,,,,,,,,,,,,,,,,,,,,,,,,,,,/muse/elements/jaw_clench
2023-08-23 18:48:20.869,1.407896218358213,0.5460208512814491,0.9229641081432516,0.6877259182950921,0.8188175397792815,0.2040929207839557,0.1137626772234742,0.1184672713128388,0.7713743100766411,0.2885724412490721,-0.3221187918394778,0.05296102285643677,0.871867185977149,1.358588425994888,0.002961378036847848,0.6788856537354842,0.676541256387905,1.201747479351935,-0.1776188639080349,0.7554568084167246,849.3772893772895,852.6007326007326,755.4945054945055,873.5531135531136,644.2857142857143,-0.335144,-0.079041,0.929749,-0.994415,-0.074768,10.557251,1,1,1,1,1,100.000000
2023-08-23 18:48:21.870,1.487065478081026,0.5460208512814491,0.9229641081432516,0.6877259182950921,0.9369342067398758,0.2040929207839557,0.1137626772234742,0.1184672713128388,0.7131520423465373,0.2885724412490721,-0.3221187918394778,0.05296102285643677,0.9273659163493551,1.358588425994888,0.002961378036847848,0.6788856537354842,0.7151994390661826,1.201747479351935,-0.1776188639080349,0.7554568084167246,830.0366300366301,847.7655677655678,855.0183150183151,846.1538461538462,825.2014652014652,-0.418213,-0.014709,0.912964,-2.811279,-5.787048,5.465546,1,1,1,1,1,100.000000
2023-08-23 18:48:22.867,1.487065478081026,0.5460208512814491,0.9229641081432516,0.6877259182950921,0.9369342067398758,0.2040929207839557,0.1137626772234742,0.1184672713128388,0.7131520423465373,0.2885724412490721,-0.3221187918394778,0.05296102285643677,0.9273659163493551,1.358588425994888,0.002961378036847848,0.6788856537354842,0.7151994390661826,1.201747479351935,-0.1776188639080349,0.7554568084167246,799.4139194139194,770.8058608058608,722.0512820512821,825.6043956043957,736.1538461538462,-0.355835,0.103271,0.924561,7.805786,1.300964,4.830017,1,2,1,1,2,100.000000
2023-08-23 18:48:23.363,,,,,,,,,,,,,,,,,,,,,,,,,,,,,,,,,,,,,,/muse/elements/blink
2023-08-23 18:48:23.864,1.797902396114156,0.5460208512814491,0.9229641081432516,0.6877259182950921,1.20442291647995,0.2040929207839557,0.1137626772234742,0.1184672713128388,0.8768435641412892,0.2885724412490721,-0.3221187918394778,0.05296102285643677,1.036147169520801,1.358588425994888,0.002961378036847848,0.6788856537354842,0.7430101997459619,1.201747479351935,-0.1776188639080349,0.7554568084167246,731.3186813186813,730.5128205128206,668.0586080586081,729.3040293040293,734.5421245421246,-0.258057,0.054749,0.971313,21.017303,5.046844,-16.912537,1,1,1,1,1,100.000000
2023-08-23 18:48:23.958,,,,,,,,,,,,,,,,,,,,,,,,,,,,,,,,,,,,,,/muse/elements/jaw_clench
2023-08-23 18:48:24.490,,,,,,,,,,,,,,,,,,,,,,,,,,,,,,,,,,,,,,/muse/elements/blink
2023-08-23 18:48:24.864,1.826585224556078,0.5460208512814491,0.9229641081432516,0.6877259182950921,1.239235589759722,0.2040929207839557,0.1137626772234742,0.1184672713128388,0.8755485672052651,0.2885724412490721,-0.3221187918394778,0.05296102285643677,1.010226213992752,1.358588425994888,0.002961378036847848,0.6788856537354842,0.7388234317893143,1.201747479351935,-0.1776188639080349,0.7554568084167246,742.6007326007326,708.7545787545788,686.1904761904763,738.974358974359,964.2124542124542,-0.476440,0.031677,0.867126,6.908569,-12.209625,-19.006042,1,1,1,1,1,100.000000
2023-08-23 18:48:24.867,,,,,,,,,,,,,,,,,,,,,,,,,,,,,,,,,,,,,,/muse/elements/jaw_clench
2023-08-23 18:48:25.716,,,,,,,,,,,,,,,,,,,,,,,,,,,,,,,,,,,,,,/muse/elements/blink
2023-08-23 18:48:25.863,1.826585224556078,0.5460208512814491,0.9229641081432516,0.6877259182950921,1.239235589759722,0.2040929207839557,0.1137626772234742,0.1184672713128388,0.8755485672052651,0.2885724412490721,-0.3221187918394778,0.05296102285643677,1.010226213992752,1.358588425994888,0.002961378036847848,0.6788856537354842,0.7388234317893143,1.201747479351935,-0.1776188639080349,0.7554568084167246,798.2051282051282,754.6886446886447,571.7582417582418,796.996336996337,703.919413919414,-0.620605,-0.000427,0.767029,-6.960907,-21.219177,10.789032,1,2,1,1,2,100.000000
2023-08-23 18:48:25.986,,,,,,,,,,,,,,,,,,,,,,,,,,,,,,,,,,,,,,/muse/elements/blink
2023-08-23 18:48:26.864,1.826585224556078,0.5460208512814491,0.9229641081432516,0.6877259182950921,1.239235589759722,0.2040929207839557,0.1137626772234742,0.1184672713128388,0.8755485672052651,0.2885724412490721,-0.3221187918394778,0.05296102285643677,1.010226213992752,1.358588425994888,0.002961378036847848,0.6788856537354842,0.7388234317893143,1.201747479351935,-0.1776188639080349,0.7554568084167246,736.1538461538462,773.6263736263736,714.3956043956044,733.7362637362637,624.1391941391942,-0.450195,0.055603,0.919556,-4.471130,-24.516449,17.159271,1,2,4,1,2,100.000000
2023-08-23 18:48:27.113,,,,,,,,,,,,,,,,,,,,,,,,,,,,,,,,,,,,,,/muse/elements/blink
2023-08-23 18:48:27.313,,,,,,,,,,,,,,,,,,,,,,,,,,,,,,,,,,,,,,/muse/elements/blink
2023-08-23 18:48:27.830,,,,,,,,,,,,,,,,,,,,,,,,,,,,,,,,,,,,,,/muse/elements/jaw_clench
2023-08-23 18:48:27.864,1.826585224556078,0.5460208512814491,0.9229641081432516,0.6877259182950921,1.239235589759722,0.2040929207839557,0.1137626772234742,0.1184672713128388,0.8755485672052651,0.2885724412490721,-0.3221187918394778,0.05296102285643677,1.010226213992752,1.358588425994888,0.002961378036847848,0.6788856537354842,0.7388234317893143,1.201747479351935,-0.1776188639080349,0.7554568084167246,854.2124542124542,904.5787545787546,836.0805860805862,873.5531135531136,642.6739926739926,-0.050537,0.006836,0.998047,1.233673,12.351685,5.854340,1,2,1,1,2,100.000000
2023-08-23 18:48:28.873,1.826585224556078,0.5460208512814491,0.9229641081432516,0.6877259182950921,1.239235589759722,0.2040929207839557,0.1137626772234742,0.1184672713128388,0.8755485672052651,0.2885724412490721,-0.3221187918394778,0.05296102285643677,1.010226213992752,1.358588425994888,0.002961378036847848,0.6788856537354842,0.7388234317893143,1.201747479351935,-0.1776188639080349,0.7554568084167246,916.6666666666667,917.8754578754579,1214.432234432235,944.4688644688645,798.6080586080586,-0.401367,0.149536,0.889893,1.629944,52.255402,-21.794891,1,2,2,1,2,100.000000
2023-08-23 18:48:28.952,,,,,,,,,,,,,,,,,,,,,,,,,,,,,,,,,,,,,,/muse/elements/blink
2023-08-23 18:48:28.952,,,,,,,,,,,,,,,,,,,,,,,,,,,,,,,,,,,,,,/muse/elements/jaw_clench
2023-08-23 18:48:29.134,,,,,,,,,,,,,,,,,,,,,,,,,,,,,,,,,,,,,,/muse/elements/blink
2023-08-23 18:48:29.868,1.826585224556078,0.5460208512814491,0.9229641081432516,0.6877259182950921,1.239235589759722,0.2040929207839557,0.1137626772234742,0.1184672713128388,0.8755485672052651,0.2885724412490721,-0.3221187918394778,0.05296102285643677,1.010226213992752,1.358588425994888,0.002961378036847848,0.6788856537354842,0.7388234317893143,1.201747479351935,-0.1776188639080349,0.7554568084167246,908.6080586080586,865.4945054945056,919.4871794871796,921.9047619047619,730.5128205128206,-0.743835,-0.079224,0.675537,14.990997,-4.560852,-7.588959,1,2,1,1,2,100.000000
2023-08-23 18:48:29.986,,,,,,,,,,,,,,,,,,,,,,,,,,,,,,,,,,,,,,/muse/elements/jaw_clench
2023-08-23 18:48:30.679,,,,,,,,,,,,,,,,,,,,,,,,,,,,,,,,,,,,,,/muse/elements/jaw_clench
2023-08-23 18:48:30.874,1.826585224556078,0.5460208512814491,0.9229641081432516,0.6877259182950921,1.239235589759722,0.2040929207839557,0.1137626772234742,0.1184672713128388,0.8755485672052651,0.2885724412490721,-0.3221187918394778,0.05296102285643677,1.010226213992752,1.358588425994888,0.002961378036847848,0.6788856537354842,0.7388234317893143,1.201747479351935,-0.1776188639080349,0.7554568084167246,826.4102564102565,894.5054945054945,988.7912087912089,849.7802197802198,688.2051282051282,-0.724182,-0.068848,0.688843,-0.029907,-9.278717,-6.609497,1,2,1,1,2,100.000000
2023-08-23 18:48:31.198,,,,,,,,,,,,,,,,,,,,,,,,,,,,,,,,,,,,,,/muse/elements/blink
2023-08-23 18:48:31.864,1.826585224556078,0.5460208512814491,0.9229641081432516,0.6877259182950921,1.239235589759722,0.2040929207839557,0.1137626772234742,0.1184672713128388,0.8755485672052651,0.2885724412490721,-0.3221187918394778,0.05296102285643677,1.010226213992752,1.358588425994888,0.002961378036847848,0.6788856537354842,0.7388234317893143,1.201747479351935,-0.1776188639080349,0.7554568084167246,871.941391941392,893.6996336996338,795.7875457875458,886.8498168498169,775.6410256410256,-0.523743,-0.038269,0.827209,11.596527,-5.256195,12.441406,1,2,1,1,2,100.000000
2023-08-23 18:48:32.414,,,,,,,,,,,,,,,,,,,,,,,,,,,,,,,,,,,,,,/muse/elements/blink
2023-08-23 18:48:32.506,,,,,,,,,,,,,,,,,,,,,,,,,,,,,,,,,,,,,,/muse/elements/jaw_clench
2023-08-23 18:48:32.862,1.826585224556078,0.5460208512814491,0.9229641081432516,0.6877259182950921,1.239235589759722,0.2040929207839557,0.1137626772234742,0.1184672713128388,0.8755485672052651,0.2885724412490721,-0.3221187918394778,0.05296102285643677,1.010226213992752,1.358588425994888,0.002961378036847848,0.6788856537354842,0.7388234317893143,1.201747479351935,-0.1776188639080349,0.7554568084167246,896.9230769230769,927.5457875457876,931.978021978022,929.1575091575091,894.1025641025641,-0.528870,0.180359,0.841431,5.973969,-11.873169,-0.104675,1,2,1,1,2,100.000000
2023-08-23 18:48:32.892,,,,,,,,,,,,,,,,,,,,,,,,,,,,,,,,,,,,,,/muse/elements/jaw_clench
2023-08-23 18:48:33.121,,,,,,,,,,,,,,,,,,,,,,,,,,,,,,,,,,,,,,/muse/elements/jaw_clench
2023-08-23 18:48:33.212,,,,,,,,,,,,,,,,,,,,,,,,,,,,,,,,,,,,,,/muse/elements/blink
2023-08-23 18:48:33.327,,,,,,,,,,,,,,,,,,,,,,,,,,,,,,,,,,,,,,/muse/elements/jaw_clench
2023-08-23 18:48:33.488,,,,,,,,,,,,,,,,,,,,,,,,,,,,,,,,,,,,,,/muse/elements/jaw_clench
2023-08-23 18:48:33.827,,,,,,,,,,,,,,,,,,,,,,,,,,,,,,,,,,,,,,/muse/elements/blink
2023-08-23 18:48:33.860,1.826585224556078,0.5460208512814491,0.9229641081432516,0.6877259182950921,1.239235589759722,0.2040929207839557,0.1137626772234742,0.1184672713128388,0.8755485672052651,0.2885724412490721,-0.3221187918394778,0.05296102285643677,1.010226213992752,1.358588425994888,0.002961378036847848,0.6788856537354842,0.7388234317893143,1.201747479351935,-0.1776188639080349,0.7554568084167246,891.6849816849817,883.2234432234433,985.9706959706961,925.934065934066,717.2161172161173,-0.511536,0.091309,0.845398,5.981445,-8.448792,-0.740204,1,2,1,1,2,100.000000
2023-08-23 18:48:34.259,,,,,,,,,,,,,,,,,,,,,,,,,,,,,,,,,,,,,,/muse/elements/jaw_clench
2023-08-23 18:48:34.858,1.826585224556078,0.5460208512814491,0.9229641081432516,0.6877259182950921,1.239235589759722,0.2040929207839557,0.1137626772234742,0.1184672713128388,0.8755485672052651,0.2885724412490721,-0.3221187918394778,0.05296102285643677,1.010226213992752,1.358588425994888,0.002961378036847848,0.6788856537354842,0.7388234317893143,1.201747479351935,-0.1776188639080349,0.7554568084167246,752.2710622710623,755.0915750915751,731.7216117216118,747.4358974358975,746.6300366300367,-0.535339,0.093933,0.831665,-0.194397,10.018921,5.809479,1,2,1,1,2,100.000000
2023-08-23 18:48:35.052,,,,,,,,,,,,,,,,,,,,,,,,,,,,,,,,,,,,,,/muse/elements/blink
2023-08-23 18:48:35.860,1.826585224556078,0.5460208512814491,0.9229641081432516,0.6877259182950921,1.239235589759722,0.2040929207839557,0.1137626772234742,0.1184672713128388,0.8755485672052651,0.2885724412490721,-0.3221187918394778,0.05296102285643677,1.010226213992752,1.358588425994888,0.002961378036847848,0.6788856537354842,0.7388234317893143,1.201747479351935,-0.1776188639080349,0.7554568084167246,740.1831501831502,682.5641025641025,676.5201465201466,687.3992673992674,802.2344322344322,-0.564880,0.115906,0.817688,0.792542,-14.190979,1.951447,1,2,1,1,2,100.000000
2023-08-23 18:48:36.854,1.14834303136322,0.5460208512814491,0.9229641081432516,0.6877259182950921,0.7858263668513589,0.2040929207839557,0.1137626772234742,0.1184672713128388,0.2652660540378557,0.2885724412490721,-0.3221187918394778,0.05296102285643677,1.023534331944596,1.358588425994888,0.002961378036847848,0.6788856537354842,0.8366389663189211,1.201747479351935,-0.1776188639080349,0.7554568084167246,697.4725274725275,668.4615384615385,601.5750915750916,651.5384615384615,756.3003663003664,-0.525024,0.144714,0.846680,-7.917938,-10.766602,8.516083,1,1,1,1,1,100.000000
2023-08-23 18:48:37.852,1.196904525736336,0.5460208512814491,0.9229641081432516,0.973261771226035,0.6751569952020566,0.2040929207839557,0.1137626772234742,0.676603253979738,0.6829707840746311,0.2885724412490721,-0.3221187918394778,0.7494892131605961,0.7197008727777164,1.358588425994888,0.002961378036847848,0.8752354231985792,0.4507485548493208,1.201747479351935,-0.1776188639080349,0.6842117176510796,706.3369963369963,645.4945054945055,794.981684981685,695.4578754578755,733.3333333333334,-0.492554,0.119507,0.838013,6.138458,-9.465637,-24.501495,1,1,1,1,1,100.000000
2023-08-23 18:48:38.857,1.204869459850061,0.5460208512814491,0.9229641081432516,1.161999786054833,0.8735991251930501,0.2040929207839557,0.1137626772234742,0.8854494644286387,0.790361750458639,0.2885724412490721,-0.3221187918394778,0.5943867148564673,0.8492094799126128,1.358588425994888,0.002961378036847848,0.9266656418410187,0.6351408873456492,1.201747479351935,-0.1776188639080349,0.7068302677925034,712.3809523809524,667.6556776556777,708.3516483516484,693.8461538461538,743.0036630036631,-0.481995,0.115906,0.862549,3.618774,-4.284210,1.009369,1,1,1,1,1,100.000000
2023-08-23 18:48:39.479,,,,,,,,,,,,,,,,,,,,,,,,,,,,,,,,,,,,,,/muse/elements/blink
2023-08-23 18:48:39.849,1.183341716064414,0.5460208512814491,0.9229641081432516,0.9733549545249611,0.9923797988589745,0.2040929207839557,0.1137626772234742,0.6565633282038675,0.8464778316758391,0.2885724412490721,-0.3221187918394778,0.9537834919589185,0.8574437501947911,1.358588425994888,0.002961378036847848,0.6822575810233598,0.5638006763913519,1.201747479351935,-0.1776188639080349,0.5930425849654811,726.8864468864469,738.1684981684982,770.8058608058608,694.6520146520147,714.3956043956044,-0.273132,-0.007507,0.960693,-22.325745,-15.619049,1.345825,1,1,1,1,1,100.000000
2023-08-23 18:48:40.428,,,,,,,,,,,,,,,,,,,,,,,,,,,,,,,,,,,,,,/muse/elements/blink
2023-08-23 18:48:40.848,1.42199940071168,0.5460208512814491,0.9229641081432516,0.8521375034355693,1.37049490667388,0.2040929207839557,0.1137626772234742,0.515467976461821,0.8534550820492898,0.2885724412490721,-0.3221187918394778,0.8087331995889386,0.7648869524242254,1.358588425994888,0.002961378036847848,0.5833532239303707,0.4071539126663692,1.201747479351935,-0.1776188639080349,0.5840254190090957,752.2710622710623,701.9047619047619,717.2161172161173,718.021978021978,809.8901098901099,-0.425781,0.046631,0.893921,1.256104,-22.303314,-17.151794,1,1,1,1,1,100.000000
2023-08-23 18:48:41.549,,,,,,,,,,,,,,,,,,,,,,,,,,,,,,,,,,,,,,/muse/elements/blink
2023-08-23 18:48:41.853,1.540298545965135,0.5460208512814491,0.9229641081432516,0.8521375034355693,1.523476636253829,0.2040929207839557,0.1137626772234742,0.515467976461821,0.8500943823710035,0.2885724412490721,-0.3221187918394778,0.8087331995889386,0.772834633335157,1.358588425994888,0.002961378036847848,0.5833532239303707,0.3789268009356099,1.201747479351935,-0.1776188639080349,0.5840254190090957,713.1868131868132,670.4761904761905,733.7362637362637,680.1465201465202,700.2930402930403,-0.395752,0.018860,0.911011,-8.463745,17.293854,5.944061,1,1,1,1,1,100.000000
2023-08-23 18:48:41.911,,,,,,,,,,,,,,,,,,,,,,,,,,,,,,,,,,,,,,/muse/elements/jaw_clench
