TimeStamp,Delta_TP9,Delta_AF7,Delta_AF8,Delta_TP10,Theta_TP9,Theta_AF7,Theta_AF8,Theta_TP10,Alpha_TP9,Alpha_AF7,Alpha_AF8,Alpha_TP10,Beta_TP9,Beta_AF7,Beta_AF8,Beta_TP10,Gamma_TP9,Gamma_AF7,Gamma_AF8,Gamma_TP10,RAW_TP9,RAW_AF7,RAW_AF8,RAW_TP10,AUX_RIGHT,Accelerometer_X,Accelerometer_Y,Accelerometer_Z,Gyro_X,Gyro_Y,Gyro_Z,HeadBandOn,HSI_TP9,HSI_AF7,HSI_AF8,HSI_TP10,Battery,Elements
2023-09-01 17:44:57.757,,,,,,,,,,,,,,,,,,,,,,,,,,,,,,,,,,,,,,/muse/event/connected Muse-D424
2023-09-01 17:44:57.808,,,,,,,,,,,,,,,,,,,,,,,,,,,,,,,,,,,,,,/muse/elements/blink
2023-09-01 17:44:58.382,,,,,,,,,,,,,,,,,,,,,,,,,,,,,,,,,,,,,,/muse/elements/blink
2023-09-01 17:44:58.710,,,,,,,,,,,,,,,,,,,,,,,,,,,,,,,,,,,,,,/muse/elements/jaw_clench
2023-09-01 17:44:58.765,1.678936973531084,0.2131852263557203,0.1454489419531347,0.8608141709226773,1.652835498958566,-0.005439500360119187,-0.2549972761622283,0.6092451061596836,1.33044352604981,0.5178969696555293,0.5307458113081873,0.8041683838222955,0.9703770770466874,1.300350634947251,1.551977641486363,0.6827249017024192,0.6715112982641009,1.188557733749747,1.192586512323832,0.4569383601244034,885.2380952380953,794.981684981685,840.1098901098901,919.0842490842491,649.1208791208792,-0.730774,0.143311,0.685242,2.586975,3.940277,0.164490,1,1,1,1,1,55.000000
2023-09-01 17:44:58.799,,,,,,,,,,,,,,,,,,,,,,,,,,,,,,,,,,,,,,/muse/elements/blink
2023-09-01 17:44:58.886,,,,,,,,,,,,,,,,,,,,,,,,,,,,,,,,,,,,,,/muse/elements/jaw_clench
2023-09-01 17:44:58.996,,,,,,,,,,,,,,,,,,,,,,,,,,,,,,,,,,,,,,/muse/elements/blink
2023-09-01 17:44:59.325,,,,,,,,,,,,,,,,,,,,,,,,,,,,,,,,,,,,,,/muse/elements/blink
2023-09-01 17:44:59.413,,,,,,,,,,,,,,,,,,,,,,,,,,,,,,,,,,,,,,/muse/elements/jaw_clench
2023-09-01 17:44:59.758,1.678936973531084,0.2131852263557203,0.1454489419531347,0.8608141709226773,1.652835498958566,-0.005439500360119187,-0.2549972761622283,0.6092451061596836,1.33044352604981,0.5178969696555293,0.5307458113081873,0.8041683838222955,0.9703770770466874,1.300350634947251,1.551977641486363,0.6827249017024192,0.6715112982641009,1.188557733749747,1.192586512323832,0.4569383601244034,854.6153846153846,780.0732600732601,798.2051282051282,770.8058608058608,890.4761904761905,-0.554443,0.082214,0.824219,-6.093597,-77.616730,7.200165,1,1,1,1,1,55.000000
2023-09-01 17:45:00.758,1.678936973531084,0.2131852263557203,0.1454489419531347,0.8608141709226773,1.652835498958566,-0.005439500360119187,-0.2549972761622283,0.6092451061596836,1.33044352604981,0.5178969696555293,0.5307458113081873,0.8041683838222955,0.9703770770466874,1.300350634947251,1.551977641486363,0.6827249017024192,0.6715112982641009,1.188557733749747,1.192586512323832,0.4569383601244034,832.4542124542124,805.8608058608058,835.2747252747253,792.1611721611722,850.5860805860806,0.211243,0.040283,0.962219,2.220612,-16.710663,-3.072968,1,2,1,1,2,55.000000
2023-09-01 17:45:01.146,,,,,,,,,,,,,,,,,,,,,,,,,,,,,,,,,,,,,,/muse/elements/blink
2023-09-01 17:45:01.758,1.678936973531084,-0.2259010577828548,0.1454489419531347,0.8608141709226773,1.652835498958566,0.07117404822948763,-0.2549972761622283,0.6092451061596836,1.33044352604981,0.3732682920350603,0.5307458113081873,0.8041683838222955,0.9703770770466874,1.245135649608343,1.551977641486363,0.6827249017024192,0.6715112982641009,1.167934290623376,1.192586512323832,0.4569383601244034,846.1538461538462,814.3223443223443,845.3479853479854,822.7838827838829,762.3443223443223,0.302246,-0.095337,0.944336,-13.906860,1.786957,-9.547882,1,2,1,1,2,55.000000
2023-09-01 17:45:02.746,,,,,,,,,,,,,,,,,,,,,,,,,,,,,,,,,,,,,,/muse/elements/blink
2023-09-01 17:45:02.757,1.018244212820393,-0.03707545266894612,0.1454489419531347,1.01137547566388,1.23669609258119,-0.02468525516225738,-0.2549972761622283,0.8340509895776592,0.7936660631027466,0.5052636807858443,0.5307458113081873,0.886127194798347,0.8715537083518988,1.262928175299571,1.551977641486363,0.8885667931891787,0.9079288816910116,1.221888619501449,1.192586512323832,0.8733733805335961,864.6886446886447,809.0842490842491,780.0732600732601,834.4688644688645,997.2527472527473,0.127319,-0.417725,0.887268,-2.586975,-4.755249,-4.299164,1,1,1,1,1,55.000000
2023-09-01 17:45:03.758,1.073514749278689,0.2960329067643938,0.1454489419531347,1.434688233157922,1.304612134188183,0.371299560115597,-0.2549972761622283,1.307269780997117,0.7643486900913943,0.9874741949885605,0.5307458113081873,1.115977617410153,0.8563697199708982,1.258815408739347,1.551977641486363,0.8651526147949977,0.8993687377305757,1.32309591261614,1.192586512323832,0.8648408151564788,848.5714285714286,796.1904761904763,733.7362637362637,834.8717948717949,784.1025641025641,0.139648,-0.411438,0.891479,3.043060,-3.005676,-0.426178,1,1,1,1,1,55.000000
2023-09-01 17:45:04.758,0.7112134079662679,0.3937286412211059,0.1454489419531347,0.2867702000613169,0.5888951469065073,0.3750634696528339,-0.2549972761622283,0.450939983873436,0.5075966069091198,0.837558149267543,0.5307458113081873,0.7090242143107273,0.6528067265472838,1.260295236320595,1.551977641486363,0.681951224053631,0.3850088017335895,1.156345419759706,1.192586512323832,0.5926887011989559,801.4285714285714,806.2637362637363,813.5164835164835,794.5787545787546,970.6593406593407,0.151611,-0.426331,0.887573,2.362671,-3.274841,-0.321503,1,1,1,1,1,55.000000
2023-09-01 17:45:05.213,,,,,,,,,,,,,,,,,,,,,,,,,,,,,,,,,,,,,,/muse/elements/blink
2023-09-01 17:45:05.758,0.6775229069864979,0.4611321593076902,0.1454489419531347,0.218266896194779,0.5725273753911848,0.4530110366378742,-0.2549972761622283,0.3764022765692954,0.3628434448232612,0.6608583776435526,0.5307458113081873,0.5500207399385385,0.622286377992788,1.197531533385122,1.551977641486363,0.6846334565473291,0.3329568472690124,1.028083919382436,1.192586512323832,0.5937144911170462,893.2967032967033,792.967032967033,791.7582417582418,839.3040293040293,898.5347985347986,-0.049011,0.135132,0.984558,30.198822,-10.654449,38.864441,1,1,1,1,1,55.000000
2023-09-01 17:45:06.758,0.6975537986908501,0.5574309692269935,0.1454489419531347,0.218266896194779,0.6540229097149396,0.642066531373079,-0.2549972761622283,0.3764022765692954,0.3172733901999396,0.5898015471298242,0.5307458113081873,0.5500207399385385,0.6006363863148443,1.029203443776226,1.551977641486363,0.6846334565473291,0.297806323699996,1.011930726369009,1.192586512323832,0.5937144911170462,844.9450549450549,798.6080586080586,823.1868131868132,824.7985347985348,811.0989010989011,0.006165,0.246582,0.979492,-22.535095,22.722015,-10.235748,1,1,1,1,1,55.000000
2023-09-01 17:45:06.826,,,,,,,,,,,,,,,,,,,,,,,,,,,,,,,,,,,,,,/muse/elements/blink
2023-09-01 17:45:07.003,,,,,,,,,,,,,,,,,,,,,,,,,,,,,,,,,,,,,,/muse/elements/blink
2023-09-01 17:45:07.003,,,,,,,,,,,,,,,,,,,,,,,,,,,,,,,,,,,,,,/muse/elements/jaw_clench
2023-09-01 17:45:07.600,,,,,,,,,,,,,,,,,,,,,,,,,,,,,,,,,,,,,,/muse/elements/blink
2023-09-01 17:45:07.762,0.6975537986908501,0.6371793643784797,0.1454489419531347,0.218266896194779,0.6540229097149396,0.3703729391969655,-0.2549972761622283,0.3764022765692954,0.3172733901999396,0.6399729716412058,0.5307458113081873,0.5500207399385385,0.6006363863148443,0.7599811560273113,1.551977641486363,0.6846334565473291,0.297806323699996,0.76463325833218,1.192586512323832,0.5937144911170462,888.4615384615385,785.3113553113553,816.3369963369963,824.7985347985348,756.7032967032967,-0.029358,0.099670,0.992371,15.962982,-15.462036,-14.714355,1,2,1,1,2,55.000000
2023-09-01 17:45:08.758,0.6975537986908501,0.6507606831008921,0.1454489419531347,0.218266896194779,0.6540229097149396,0.4310937240981615,-0.2549972761622283,0.3764022765692954,0.3172733901999396,0.5907111950890443,0.5307458113081873,0.5500207399385385,0.6006363863148443,0.6814347994133924,1.551977641486363,0.6846334565473291,0.297806323699996,0.735891213837764,1.192586512323832,0.5937144911170462,894.908424908425,825.6043956043957,823.992673992674,833.2600732600733,923.1135531135532,-0.275024,-0.193481,0.930237,-16.553650,7.731018,-10.437622,1,2,1,1,2,55.000000
2023-09-01 17:45:08.845,,,,,,,,,,,,,,,,,,,,,,,,,,,,,,,,,,,,,,/muse/elements/jaw_clench
2023-09-01 17:45:09.065,,,,,,,,,,,,,,,,,,,,,,,,,,,,,,,,,,,,,,/muse/elements/jaw_clench
2023-09-01 17:45:09.758,0.6975537986908501,0.7155417200063962,0.1454489419531347,0.8812980893470488,0.6540229097149396,0.4466720152268396,-0.2549972761622283,0.9063959374261121,0.3172733901999396,0.3051120981452378,0.5307458113081873,0.8619738764056606,0.6006363863148443,0.6013675626990888,1.551977641486363,0.8913595713712918,0.297806323699996,0.6177968167582231,1.192586512323832,0.8156857209542115,836.4835164835165,803.8461538461539,819.5604395604396,829.6336996336996,745.4212454212454,-0.070679,-0.135254,0.979980,3.985138,-6.153412,1.659851,1,1,1,1,1,55.000000
2023-09-01 17:45:10.648,,,,,,,,,,,,,,,,,,,,,,,,,,,,,,,,,,,,,,/muse/elements/blink
2023-09-01 17:45:10.760,0.6975537986908501,0.7155417200063962,0.1454489419531347,1.261105228809328,0.6540229097149396,0.4466720152268396,-0.2549972761622283,1.235425195119066,0.3172733901999396,0.3051120981452378,0.5307458113081873,0.8485413881225186,0.6006363863148443,0.6013675626990888,1.551977641486363,0.8057262103136938,0.297806323699996,0.6177968167582231,1.192586512323832,0.7354215590218838,967.032967032967,802.2344322344322,798.2051282051282,856.2271062271062,890.8791208791209,-0.643799,0.019836,0.834229,12.045135,28.202515,3.872986,1,1,1,1,1,55.000000
2023-09-01 17:45:11.000,,,,,,,,,,,,,,,,,,,,,,,,,,,,,,,,,,,,,,/muse/elements/jaw_clench
2023-09-01 17:45:11.680,,,,,,,,,,,,,,,,,,,,,,,,,,,,,,,,,,,,,,/muse/elements/jaw_clench
2023-09-01 17:45:11.758,0.6975537986908501,0.7155417200063962,0.1454489419531347,1.261105228809328,0.6540229097149396,0.4466720152268396,-0.2549972761622283,1.235425195119066,0.3172733901999396,0.3051120981452378,0.5307458113081873,0.8485413881225186,0.6006363863148443,0.6013675626990888,1.551977641486363,0.8057262103136938,0.297806323699996,0.6177968167582231,1.192586512323832,0.7354215590218838,968.2417582417582,796.5934065934066,850.5860805860806,915.4578754578755,846.5567765567765,-0.875610,0.048096,0.507080,10.220795,21.645355,-13.749847,1,1,1,1,1,55.000000
2023-09-01 17:45:11.791,,,,,,,,,,,,,,,,,,,,,,,,,,,,,,,,,,,,,,/muse/elements/blink
2023-09-01 17:45:12.767,0.6975537986908501,0.7155417200063962,0.1454489419531347,1.261105228809328,0.6540229097149396,0.4466720152268396,-0.2549972761622283,1.235425195119066,0.3172733901999396,0.3051120981452378,0.5307458113081873,0.8485413881225186,0.6006363863148443,0.6013675626990888,1.551977641486363,0.8057262103136938,0.297806323699996,0.6177968167582231,1.192586512323832,0.7354215590218838,874.3589743589744,784.9084249084249,761.941391941392,811.9047619047619,807.8754578754579,-0.852844,0.074036,0.492920,-6.422577,-1.286011,4.037476,1,2,1,1,2,55.000000
2023-09-01 17:45:12.822,,,,,,,,,,,,,,,,,,,,,,,,,,,,,,,,,,,,,,/muse/elements/jaw_clench
2023-09-01 17:45:13.529,,,,,,,,,,,,,,,,,,,,,,,,,,,,,,,,,,,,,,/muse/elements/jaw_clench
2023-09-01 17:45:13.759,0.6975537986908501,0.7155417200063962,0.1454489419531347,1.261105228809328,0.6540229097149396,0.4466720152268396,-0.2549972761622283,1.235425195119066,0.3172733901999396,0.3051120981452378,0.5307458113081873,0.8485413881225186,0.6006363863148443,0.6013675626990888,1.551977641486363,0.8057262103136938,0.297806323699996,0.6177968167582231,1.192586512323832,0.7354215590218838,1012.564102564103,804.6520146520147,729.7069597069598,801.025641025641,813.5164835164835,-0.827087,0.106567,0.539673,3.244934,-5.697327,-1.981354,1,2,1,1,2,55.000000
2023-09-01 17:45:14.765,0.6975537986908501,0.7155417200063962,0.1454489419531347,0.8664580264544717,0.6540229097149396,0.4466720152268396,-0.2549972761622283,0.7473253806060498,0.3172733901999396,0.3051120981452378,0.5307458113081873,0.3340031027377053,0.6006363863148443,0.6013675626990888,1.551977641486363,0.8861899522961935,0.297806323699996,0.6177968167582231,1.192586512323832,0.7288615725475326,977.9120879120879,785.3113553113553,821.5750915750916,863.8827838827839,742.6007326007326,-0.226196,0.087097,0.918335,-27.417450,-112.952118,14.527435,1,1,1,1,1,55.000000
2023-09-01 17:45:14.842,,,,,,,,,,,,,,,,,,,,,,,,,,,,,,,,,,,,,,/muse/elements/blink
2023-09-01 17:45:15.758,0.6975537986908501,0.7155417200063962,0.1454489419531347,0.9374439456920095,0.6540229097149396,0.4466720152268396,-0.2549972761622283,0.7533042503440407,0.3172733901999396,0.3051120981452378,0.5307458113081873,0.3277105151979299,0.6006363863148443,0.6013675626990888,1.551977641486363,0.9396958149842152,0.297806323699996,0.6177968167582231,1.192586512323832,0.7791663468426617,864.2857142857143,789.7435897435897,701.5018315018315,821.1721611721612,799.0109890109891,0.100098,-0.086609,0.979004,8.269348,-5.069275,-20.516357,1,1,1,1,1,55.000000
2023-09-01 17:45:16.058,,,,,,,,,,,,,,,,,,,,,,,,,,,,,,,,,,,,,,/muse/elements/jaw_clench
2023-09-01 17:45:16.483,,,,,,,,,,,,,,,,,,,,,,,,,,,,,,,,,,,,,,/muse/elements/blink
2023-09-01 17:45:16.760,0.6975537986908501,-0.1498270945570202,0.1454489419531347,1.556056452372334,0.6540229097149396,-0.04602705785005487,-0.2549972761622283,1.345174523772935,0.3172733901999396,0.3411666868177924,0.5307458113081873,1.286210891062104,0.6006363863148443,1.257680553487227,1.551977641486363,0.8911610905755863,0.297806323699996,1.023734462817792,1.192586512323832,0.6682518690529764,1008.534798534799,800.6227106227107,801.8315018315019,842.1245421245421,835.2747252747253,0.080750,0.021423,0.996277,3.596344,-5.929108,-3.207550,1,1,1,1,1,55.000000
2023-09-01 17:45:17.387,,,,,,,,,,,,,,,,,,,,,,,,,,,,,,,,,,,,,,/muse/elements/jaw_clench
2023-09-01 17:45:17.757,0.6975537986908501,-0.08464842691084387,0.1454489419531347,1.455931778696824,0.6540229097149396,-0.06787878062556792,-0.2549972761622283,1.146793096268425,0.3172733901999396,0.6250126801519523,0.5307458113081873,1.286210891062104,0.6006363863148443,1.284192657015504,1.551977641486363,0.9260591719945317,0.297806323699996,0.9452840418690227,1.192586512323832,0.6515158042528422,952.1245421245421,812.3076923076924,786.9230769230769,838.901098901099,963.8095238095239,0.181519,0.080933,0.967529,16.605988,-8.037567,12.336731,1,1,1,1,1,55.000000
2023-09-01 17:45:18.758,0.7384618267589436,-0.09339346190416697,0.1454489419531347,0.6490240211227585,0.1992393041830071,-0.1953002770609486,-0.2549972761622283,0.2926929576235896,0.4718725375802197,0.7093428544673795,0.5307458113081873,0.529828080485134,0.7650087981271487,1.206557683169979,1.551977641486363,0.7785775348716973,0.1715985662384131,0.9433679277672592,1.192586512323832,0.5250585391452025,907.8021978021978,803.8461538461539,792.967032967033,827.6190476190476,789.3406593406594,0.131958,0.187439,0.956726,2.998199,-6.489868,-2.818756,1,1,1,1,1,55.000000
2023-09-01 17:45:19.616,,,,,,,,,,,,,,,,,,,,,,,,,,,,,,,,,,,,,,/muse/elements/jaw_clench
2023-09-01 17:45:19.759,0.8272151581737142,0.2360446387811202,0.1454489419531347,1.002357853877366,0.5560011661968761,-0.2057992086602544,-0.2549972761622283,0.7165635312845788,0.6760212108404569,0.7485613695117396,0.5307458113081873,0.7540537164606241,0.5397758125398997,1.086768286715926,1.551977641486363,0.8486526958093406,0.2426803142948445,0.8163346022190232,1.192586512323832,0.587283352387346,994.8351648351648,790.1465201465202,773.2234432234433,814.7252747252747,834.4688644688645,0.226868,0.265137,0.922668,5.129089,-7.319794,5.727234,1,1,1,1,1,55.000000
2023-09-01 17:45:20.652,,,,,,,,,,,,,,,,,,,,,,,,,,,,,,,,,,,,,,/muse/elements/blink
2023-09-01 17:45:20.758,1.091240553436255,0.249251370841046,0.1454489419531347,0.8291220511432371,0.9943516043951605,-0.2482260144570509,-0.2549972761622283,0.7478307117141008,0.7440830512521914,0.7027967964267258,0.5307458113081873,0.9597167649456231,0.84030614655226,1.082642069203174,1.551977641486363,0.9561350118645456,0.9257997882811088,0.8685855826189788,1.192586512323832,0.5301849658968554,914.2490842490843,761.5384615384615,843.3333333333334,853.0036630036631,934.7985347985348,0.040344,0.117371,0.975098,-24.576263,14.071350,-25.353851,1,1,1,1,1,55.000000
2023-09-01 17:45:21.757,1.034395530346404,0.1492407561918463,0.1454489419531347,0.9288458132704703,0.9218179316440778,-0.08130073341439092,-0.2549972761622283,0.9613471740557202,0.747773546913617,0.6202306954094277,0.5307458113081873,0.8734533530173167,0.8177851199062569,1.058934145817507,1.551977641486363,0.9298490860221345,0.8763521944370912,0.7895559897374236,1.192586512323832,0.3757755380543536,878.3882783882784,805.0549450549451,791.3553113553114,836.8864468864469,816.3369963369963,-0.073425,-0.102356,0.982483,2.489777,-2.175751,-11.155396,1,1,1,1,1,55.000000
2023-09-01 17:45:22.482,,,,,,,,,,,,,,,,,,,,,,,,,,,,,,,,,,,,,,/muse/elements/blink
2023-09-01 17:45:22.572,,,,,,,,,,,,,,,,,,,,,,,,,,,,,,,,,,,,,,/muse/elements/jaw_clench
2023-09-01 17:45:22.751,,,,,,,,,,,,,,,,,,,,,,,,,,,,,,,,,,,,,,/muse/elements/jaw_clench
2023-09-01 17:45:22.764,1.21855005208459,0.4276808538212468,0.1454489419531347,0.9816135573349992,0.9248236600664768,0.1862797309439321,-0.2549972761622283,0.8622204188411643,1.132332772136439,0.5006003051853084,0.5307458113081873,0.6941889506576827,0.8646711125746406,1.086542327204968,1.551977641486363,0.6170545512365706,0.7314154175592531,0.9212052583772319,1.192586512323832,0.5765046107095435,937.2161172161173,751.4652014652015,822.7838827838829,835.6776556776557,855.4212454212454,-0.215820,-0.066589,0.964783,3.267365,-6.400146,-0.979462,1,1,1,1,1,55.000000
2023-09-01 17:45:23.270,,,,,,,,,,,,,,,,,,,,,,,,,,,,,,,,,,,,,,/muse/elements/jaw_clench
2023-09-01 17:45:23.758,1.21855005208459,0.063709906210834,0.1454489419531347,0.9327393127926492,0.9248236600664768,-0.173123750167673,-0.2549972761622283,0.8112482836209538,1.132332772136439,0.5769957976301671,0.5307458113081873,0.6356241659904907,0.8646711125746406,1.3004325888321,1.551977641486363,0.5933449442954032,0.7314154175592531,0.9622908932581626,1.192586512323832,0.6438308450735201,927.1428571428572,795.7875457875458,783.2967032967033,856.2271062271062,834.0659340659341,-0.204651,-0.061157,0.980652,8.897400,20.179901,-9.562836,1,1,1,1,1,55.000000
2023-09-01 17:45:23.880,,,,,,,,,,,,,,,,,,,,,,,,,,,,,,,,,,,,,,/muse/elements/blink
2023-09-01 17:45:24.492,,,,,,,,,,,,,,,,,,,,,,,,,,,,,,,,,,,,,,/muse/elements/jaw_clench
2023-09-01 17:45:24.688,,,,,,,,,,,,,,,,,,,,,,,,,,,,,,,,,,,,,,/muse/elements/blink
2023-09-01 17:45:24.764,1.21855005208459,-0.0539724400267858,0.1454489419531347,0.9327393127926492,0.9248236600664768,-0.3692696619216891,-0.2549972761622283,0.8112482836209538,1.132332772136439,0.4367076954500371,0.5307458113081873,0.6356241659904907,0.8646711125746406,1.296025561521488,1.551977641486363,0.5933449442954032,0.7314154175592531,0.9591949073455562,1.192586512323832,0.6438308450735201,1144.322344322344,850.1831501831502,801.8315018315019,948.901098901099,771.2087912087912,-0.842041,-0.047913,0.601807,-20.733185,42.677612,55.933990,1,1,1,4,1,55.000000
2023-09-01 17:45:25.758,1.21855005208459,-0.0539724400267858,0.1454489419531347,0.9327393127926492,0.9248236600664768,-0.3692696619216891,-0.2549972761622283,0.8112482836209538,1.132332772136439,0.4367076954500371,0.5307458113081873,0.6356241659904907,0.8646711125746406,1.296025561521488,1.551977641486363,0.5933449442954032,0.7314154175592531,0.9591949073455562,1.192586512323832,0.6438308450735201,973.8827838827839,815.1282051282052,813.1135531135532,842.9304029304029,823.1868131868132,-0.823730,0.084412,0.560242,3.701019,-3.850555,-2.915955,1,2,1,1,2,55.000000
2023-09-01 17:45:26.758,1.21855005208459,-0.0539724400267858,0.1454489419531347,0.9327393127926492,0.9248236600664768,-0.3692696619216891,-0.2549972761622283,0.8112482836209538,1.132332772136439,0.4367076954500371,0.5307458113081873,0.6356241659904907,0.8646711125746406,1.296025561521488,1.551977641486363,0.5933449442954032,0.7314154175592531,0.9591949073455562,1.192586512323832,0.6438308450735201,1169.304029304029,823.5897435897436,761.1355311355312,826.4102564102565,847.3626373626374,-0.798157,0.076904,0.605103,3.013153,-8.545990,-0.792542,1,2,1,1,2,55.000000
2023-09-01 17:45:26.834,,,,,,,,,,,,,,,,,,,,,,,,,,,,,,,,,,,,,,/muse/elements/jaw_clench
2023-09-01 17:45:27.250,,,,,,,,,,,,,,,,,,,,,,,,,,,,,,,,,,,,,,/muse/elements/jaw_clench
2023-09-01 17:45:27.770,1.21855005208459,-0.0539724400267858,0.1454489419531347,0.9327393127926492,0.9248236600664768,-0.3692696619216891,-0.2549972761622283,0.8112482836209538,1.132332772136439,0.4367076954500371,0.5307458113081873,0.6356241659904907,0.8646711125746406,1.296025561521488,1.551977641486363,0.5933449442954032,0.7314154175592531,0.9591949073455562,1.192586512323832,0.6438308450735201,961.7948717948718,800.2197802197802,723.2600732600732,813.919413919414,859.047619047619,-0.173340,-0.060852,0.959106,-9.660034,-9.712372,9.510498,1,2,1,1,2,55.000000
2023-09-01 17:45:27.867,,,,,,,,,,,,,,,,,,,,,,,,,,,,,,,,,,,,,,/muse/elements/jaw_clench
2023-09-01 17:45:28.758,1.21855005208459,-0.0539724400267858,0.1454489419531347,0.9327393127926492,0.9248236600664768,-0.3692696619216891,-0.2549972761622283,0.8112482836209538,1.132332772136439,0.4367076954500371,0.5307458113081873,0.6356241659904907,0.8646711125746406,1.296025561521488,1.551977641486363,0.5933449442954032,0.7314154175592531,0.9591949073455562,1.192586512323832,0.6438308450735201,875.5677655677656,794.1758241758242,820.7692307692308,813.5164835164835,1010.952380952381,0.089050,0.015137,0.983337,1.644897,-11.095581,4.755249,1,2,1,4,2,55.000000
2023-09-01 17:45:29.767,1.21855005208459,0.689160908583068,0.1454489419531347,1.272676089258372,0.9248236600664768,0.4398006695774901,-0.2549972761622283,0.7138471142936017,1.132332772136439,0.5209397016091935,0.5307458113081873,0.6775933182672915,0.8646711125746406,1.227683873907522,1.551977641486363,0.9170227630759914,0.7314154175592531,1.268496156883001,1.192586512323832,0.6347462239119034,936.4102564102565,814.7252747252747,797.3992673992674,816.3369963369963,744.2124542124542,0.111877,-0.008362,0.983704,1.338348,-2.205658,2.519684,1,1,1,1,1,55.000000
2023-09-01 17:45:30.758,1.21855005208459,-0.03628999752037378,0.1454489419531347,1.081027543059671,0.9248236600664768,0.2417445026937512,-0.2549972761622283,0.5817793632118441,1.132332772136439,0.5289578280361042,0.5307458113081873,0.9291713799526281,0.8646711125746406,0.6845309970653674,1.551977641486363,0.896675679464356,0.7314154175592531,0.7389137347756872,1.192586512323832,0.6449223423295862,955.3479853479854,800.2197802197802,820.7692307692308,833.2600732600733,708.3516483516484,0.100891,-0.000549,0.973206,3.229980,-3.259888,-3.132782,1,1,1,1,1,55.000000
2023-09-01 17:45:31.765,1.21855005208459,0.5374570810505587,0.2978711889054557,1.228816939267887,0.9248236600664768,0.2570309441359905,0.4084855104413407,0.6936012998217361,1.132332772136439,0.7884501478249436,0.8675644344229722,0.9292354962558736,0.8646711125746406,0.823716887622682,1.434168554547164,0.9043924336903528,0.7314154175592531,0.8075656514427705,1.199673526841429,0.7099381710878069,833.6630036630037,790.1465201465202,808.6813186813187,775.2380952380953,740.1831501831502,0.176025,0.058228,0.967346,6.071167,-4.261780,8.344116,1,1,1,1,1,55.000000
2023-09-01 17:45:32.758,1.261670759568709,0.7085235529941544,0.3771369799229766,1.122744327977929,0.7834307353969764,0.06361653400572445,0.4131800230343433,0.6778843542687444,0.599607780267096,0.7794063807128973,0.7843230406188684,0.9059635459078574,0.4846901049356776,0.9875389306096173,1.319970614659048,0.7757506649575457,0.4369115879502387,0.8255845611921063,1.127300571935466,0.6100348705001305,879.5970695970697,796.1904761904763,772.4175824175825,793.3699633699634,697.8754578754579,0.188904,0.039185,0.960266,0.785065,-3.843079,3.170166,1,1,1,1,1,55.000000
2023-09-01 17:45:33.758,0.7579570297412579,0.2476563035202071,0.3300442305959462,0.6143445324512095,1.0077286269659,0.2949713132139137,0.2399152394830824,0.8284900004046138,1.078292313420848,0.6375158696467592,0.7794210512495795,1.194366955454927,0.4847418949413899,0.9570818977297479,1.339935552991869,0.6719988782824221,0.4299041008150428,1.030393850330195,0.9995321550911952,0.5207004778293889,908.2051282051282,791.3553113553114,801.025641025641,799.4139194139194,693.4432234432235,0.215820,0.018372,0.962708,0.807495,-3.603821,2.093506,1,1,1,1,1,50.000000
2023-09-01 17:45:34.673,,,,,,,,,,,,,,,,,,,,,,,,,,,,,,,,,,,,,,/muse/elements/blink
2023-09-01 17:45:34.758,0.963097952440829,0.2270114252402846,0.2181547713907648,0.7128693765148483,1.147951542988615,0.2868954780459408,0.2588825408625101,0.7600332660063482,1.048207438149278,0.3551074047567685,0.986121971228122,1.098652108250761,0.6385937796600009,1.091990437274428,1.348227744245635,0.6845494199534691,0.5184807293400377,0.6002413919166475,1.104275339768072,0.4774363937208564,957.3626373626374,794.1758241758242,778.4615384615385,861.0622710622711,873.5531135531136,0.112915,0.030457,0.996582,-1.293488,29.623108,-28.299713,1,1,1,1,1,50.000000
2023-09-01 17:45:34.849,,,,,,,,,,,,,,,,,,,,,,,,,,,,,,,,,,,,,,/muse/elements/blink
2023-09-01 17:45:35.068,,,,,,,,,,,,,,,,,,,,,,,,,,,,,,,,,,,,,,/muse/elements/blink
2023-09-01 17:45:35.758,0.963097952440829,0.244044010975811,0.2825272044940105,0.7694838296760416,1.147951542988615,0.1665618595968939,0.2525115481837126,0.6253108120533626,1.048207438149278,0.3024956396013398,0.6599394789776813,0.5852491462094783,0.6385937796600009,1.044329791918744,1.197281288192567,0.6510227407990125,0.5184807293400377,0.5447271111560034,1.08452011174995,0.6457900461720499,781.6849816849817,763.1501831501831,788.5347985347986,810.2930402930403,676.1172161172161,-0.007935,-0.007629,0.983948,-1.390686,-18.363037,22.931366,1,1,1,1,1,50.000000
2023-09-01 17:45:36.757,0.963097952440829,0.244044010975811,0.2825272044940105,0.7694838296760416,1.147951542988615,0.1665618595968939,0.2525115481837126,0.6253108120533626,1.048207438149278,0.3024956396013398,0.6599394789776813,0.5852491462094783,0.6385937796600009,1.044329791918744,1.197281288192567,0.6510227407990125,0.5184807293400377,0.5447271111560034,1.08452011174995,0.6457900461720499,768.7912087912088,791.7582417582418,826.007326007326,767.5824175824176,613.2600732600732,0.167297,-0.018127,0.965576,1.263580,-12.695618,-7.843170,1,1,1,1,1,50.000000
2023-09-01 17:45:37.763,0.7842939454911692,-0.1582502372960319,0.2825272044940105,0.6314150568670718,0.7469873095461701,0.2254795907563545,0.2525115481837126,1.030258351761781,0.6767087013790891,0.2027843181631388,0.6599394789776813,0.976736178749237,0.5991732830133705,1.140011836385309,1.197281288192567,0.8431483014726466,0.5750238611504059,1.143526244362256,1.08452011174995,0.6349695783491702,616.4835164835165,776.0439560439561,789.3406593406594,688.6080586080586,563.6996336996338,0.307068,0.013184,0.947998,2.213135,3.813171,-4.187012,1,1,1,1,1,50.000000
2023-09-01 17:45:37.976,,,,,,,,,,,,,,,,,,,,,,,,,,,,,,,,,,,,,,/muse/elements/blink
2023-09-01 17:45:38.415,,,,,,,,,,,,,,,,,,,,,,,,,,,,,,,,,,,,,,/muse/elements/blink
2023-09-01 17:45:38.758,0.6835237549436669,0.3832811513968398,0.2825272044940105,0.5855640829639625,0.8159754484676495,0.3344163242128794,0.2525115481837126,1.029562558083552,0.6028221961841345,0.4536387521358556,0.6599394789776813,0.976736178749237,0.6393966210056612,1.023927416359178,1.197281288192567,0.8668223355611763,0.6005066872772198,1.056654316212853,1.08452011174995,0.6557219308739481,707.948717948718,820.7692307692308,786.5201465201466,748.6446886446887,726.8864468864469,0.052124,0.012451,0.980042,0.157013,-19.858398,-5.742188,1,1,1,1,1,50.000000
2023-09-01 17:45:39.758,0.6766678880310592,0.4997231521027005,0.2825272044940105,1.051199470541729,0.8531149502472278,0.2614753570794243,0.2525115481837126,1.275675138054713,0.5472371554105713,0.4790975504020257,0.6599394789776813,0.8715700852123206,0.6628846765652632,1.070555339549422,1.197281288192567,0.8419901275906524,0.6196694605477706,1.002550289162879,1.08452011174995,0.7572385535145979,732.9304029304029,798.2051282051282,826.4102564102565,778.0586080586081,643.4798534798535,0.135803,-0.047546,0.977783,1.674805,10.123596,-11.095581,1,1,1,1,1,50.000000
2023-09-01 17:45:39.917,,,,,,,,,,,,,,,,,,,,,,,,,,,,,,,,,,,,,,/muse/elements/blink
2023-09-01 17:45:40.334,,,,,,,,,,,,,,,,,,,,,,,,,,,,,,,,,,,,,,/muse/elements/jaw_clench
2023-09-01 17:45:40.660,,,,,,,,,,,,,,,,,,,,,,,,,,,,,,,,,,,,,,/muse/elements/blink
2023-09-01 17:45:40.758,0.6766678880310592,0.3462340706165281,0.2825272044940105,1.051199470541729,0.8531149502472278,-0.05229109131278241,0.2525115481837126,1.275675138054713,0.5472371554105713,0.5071985133534634,0.6599394789776813,0.8715700852123206,0.6628846765652632,1.018279875072076,1.197281288192567,0.8419901275906524,0.6196694605477706,0.7878329082719047,1.08452011174995,0.7572385535145979,707.1428571428571,821.1721611721612,763.1501831501831,738.974358974359,717.2161172161173,-0.267578,0.005249,0.949036,-8.284302,4.702911,0.373840,1,2,1,1,2,50.000000
2023-09-01 17:45:41.359,,,,,,,,,,,,,,,,,,,,,,,,,,,,,,,,,,,,,,/muse/elements/jaw_clench
2023-09-01 17:45:41.758,0.6766678880310592,0.5001444226274725,0.2825272044940105,1.051199470541729,0.8531149502472278,0.01758299225984963,0.2525115481837126,1.275675138054713,0.5472371554105713,0.4242384215839938,0.6599394789776813,0.8715700852123206,0.6628846765652632,0.838704274735782,1.197281288192567,0.8419901275906524,0.6196694605477706,0.6655636457360887,1.08452011174995,0.7572385535145979,718.8278388278388,831.6483516483516,850.989010989011,761.941391941392,674.5054945054945,-0.081238,-0.083740,0.970764,3.446808,-3.304749,-4.590759,1,2,1,1,2,50.000000
2023-09-01 17:45:42.273,,,,,,,,,,,,,,,,,,,,,,,,,,,,,,,,,,,,,,/muse/elements/blink
2023-09-01 17:45:42.690,,,,,,,,,,,,,,,,,,,,,,,,,,,,,,,,,,,,,,/muse/elements/jaw_clench
2023-09-01 17:45:42.767,0.6766678880310592,0.5001444226274725,0.2825272044940105,1.051199470541729,0.8531149502472278,0.01758299225984963,0.2525115481837126,1.275675138054713,0.5472371554105713,0.4242384215839938,0.6599394789776813,0.8715700852123206,0.6628846765652632,0.838704274735782,1.197281288192567,0.8419901275906524,0.6196694605477706,0.6655636457360887,1.08452011174995,0.7572385535145979,746.2271062271062,849.3772893772895,821.978021978022,793.3699633699634,504.0659340659341,-0.306763,-0.071960,0.937683,3.902893,-5.592651,-0.957031,1,2,1,1,2,50.000000
2023-09-01 17:45:42.865,,,,,,,,,,,,,,,,,,,,,,,,,,,,,,,,,,,,,,/muse/elements/blink
2023-09-01 17:45:43.215,,,,,,,,,,,,,,,,,,,,,,,,,,,,,,,,,,,,,,/muse/elements/jaw_clench
2023-09-01 17:45:43.392,,,,,,,,,,,,,,,,,,,,,,,,,,,,,,,,,,,,,,/muse/elements/blink
2023-09-01 17:45:43.758,0.6766678880310592,0.5001444226274725,0.2825272044940105,1.051199470541729,0.8531149502472278,0.01758299225984963,0.2525115481837126,1.275675138054713,0.5472371554105713,0.4242384215839938,0.6599394789776813,0.8715700852123206,0.6628846765652632,0.838704274735782,1.197281288192567,0.8419901275906524,0.6196694605477706,0.6655636457360887,1.08452011174995,0.7572385535145979,751.4652014652015,795.7875457875458,813.5164835164835,781.2820512820513,926.3369963369963,-0.085266,-0.057068,0.984741,2.093506,-3.521576,-1.487885,1,2,1,1,2,50.000000
2023-09-01 17:45:43.805,,,,,,,,,,,,,,,,,,,,,,,,,,,,,,,,,,,,,,/muse/elements/jaw_clench
2023-09-01 17:45:44.757,0.6766678880310592,-0.0006913766183693754,0.2825272044940105,1.051199470541729,0.8531149502472278,0.3893443335747017,0.2525115481837126,1.275675138054713,0.5472371554105713,0.8500973617183532,0.6599394789776813,0.8715700852123206,0.6628846765652632,1.30997922544151,1.197281288192567,0.8419901275906524,0.6196694605477706,1.119876538241138,1.08452011174995,0.7572385535145979,597.5457875457876,794.5787545787546,809.4871794871796,757.1062271062272,628.974358974359,-0.110535,0.268555,0.959778,1.607513,-3.663635,-3.529053,1,2,1,1,2,55.000000
2023-09-01 17:45:45.310,,,,,,,,,,,,,,,,,,,,,,,,,,,,,,,,,,,,,,/muse/elements/blink
2023-09-01 17:45:45.766,0.6766678880310592,0.2908222799104404,0.2825272044940105,1.051199470541729,0.8531149502472278,0.2136078485817555,0.2525115481837126,1.275675138054713,0.5472371554105713,0.5969624376147773,0.6599394789776813,0.8715700852123206,0.6628846765652632,1.132047460276967,1.197281288192567,0.8419901275906524,0.6196694605477706,0.9971030351240607,1.08452011174995,0.7572385535145979,655.5677655677656,812.3076923076924,805.0549450549451,773.6263736263736,576.5934065934066,-0.198914,0.073975,0.977356,2.400055,-22.677155,-6.130981,1,2,1,1,2,55.000000
2023-09-01 17:45:46.612,,,,,,,,,,,,,,,,,,,,,,,,,,,,,,,,,,,,,,/muse/elements/blink
2023-09-01 17:45:46.758,1.266004276446078,0.2931254859723119,0.2825272044940105,1.457172805249328,1.143247784514039,0.1118487487930354,0.2525115481837126,1.097523927301455,1.071294055128313,0.6105783223331805,0.6599394789776813,1.098337060033482,0.8153616639925356,1.256706018685464,1.197281288192567,0.8937224118099768,0.5355635892606173,0.909122292270101,1.08452011174995,0.5072643393348965,687.3992673992674,792.1611721611722,772.8205128205128,756.7032967032967,775.2380952380953,-0.137390,0.061096,0.972961,0.822449,4.486084,0.770111,1,1,1,1,1,55.000000
2023-09-01 17:45:46.943,,,,,,,,,,,,,,,,,,,,,,,,,,,,,,,,,,,,,,/muse/elements/jaw_clench
2023-09-01 17:45:47.758,1.319801511059643,0.2392541503013959,0.2825272044940105,1.383170973030893,1.09172502579622,0.2761230094081917,0.2525115481837126,1.169431370581627,1.013550347950109,0.4826069459255421,0.6599394789776813,1.221304509498146,0.8644224505576976,1.282501739053533,1.197281288192567,0.725091919136177,0.6951308114123503,0.8659236949154636,1.08452011174995,0.6833646272303192,669.6703296703297,785.7142857142858,822.3809523809524,736.959706959707,652.3443223443223,-0.153137,0.052612,0.980530,0.568237,1.846771,1.996307,1,1,1,1,1,55.000000
2023-09-01 17:45:48.450,,,,,,,,,,,,,,,,,,,,,,,,,,,,,,,,,,,,,,/muse/elements/blink
2023-09-01 17:45:48.450,,,,,,,,,,,,,,,,,,,,,,,,,,,,,,,,,,,,,,/muse/elements/jaw_clench
2023-09-01 17:45:48.757,1.319801511059643,0.2392541503013959,0.2825272044940105,1.32493385569718,1.09172502579622,0.2761230094081917,0.2525115481837126,1.120608914197562,1.013550347950109,0.4826069459255421,0.6599394789776813,1.186943753039056,0.8644224505576976,1.282501739053533,1.197281288192567,0.7100986767517961,0.6951308114123503,0.8659236949154636,1.08452011174995,0.6931591383923433,641.8681318681319,856.6300366300367,795.7875457875458,809.8901098901099,606.007326007326,-0.794678,0.104248,0.604919,-6.302948,8.508606,16.523743,1,1,1,1,1,55.000000
2023-09-01 17:45:49.067,,,,,,,,,,,,,,,,,,,,,,,,,,,,,,,,,,,,,,/muse/elements/jaw_clench
2023-09-01 17:45:49.664,,,,,,,,,,,,,,,,,,,,,,,,,,,,,,,,,,,,,,/muse/elements/jaw_clench
2023-09-01 17:45:49.760,1.319801511059643,0.2392541503013959,0.2825272044940105,1.32493385569718,1.09172502579622,0.2761230094081917,0.2525115481837126,1.120608914197562,1.013550347950109,0.4826069459255421,0.6599394789776813,1.186943753039056,0.8644224505576976,1.282501739053533,1.197281288192567,0.7100986767517961,0.6951308114123503,0.8659236949154636,1.08452011174995,0.6931591383923433,646.7032967032967,766.7765567765568,848.1684981684982,687.3992673992674,695.8608058608058,-0.770203,0.128723,0.609924,4.418793,-0.433655,-5.009460,1,2,1,1,2,55.000000
2023-09-01 17:45:49.993,,,,,,,,,,,,,,,,,,,,,,,,,,,,,,,,,,,,,,/muse/elements/blink
2023-09-01 17:45:50.430,,,,,,,,,,,,,,,,,,,,,,,,,,,,,,,,,,,,,,/muse/elements/jaw_clench
2023-09-01 17:45:50.758,1.319801511059643,-0.009588270347046859,0.2825272044940105,1.32493385569718,1.09172502579622,0.1612865324131912,0.2525115481837126,1.120608914197562,1.013550347950109,0.1849176769617813,0.6599394789776813,1.186943753039056,0.8644224505576976,1.334375501552387,1.197281288192567,0.7100986767517961,0.6951308114123503,1.044079704490352,1.08452011174995,0.6931591383923433,635.4212454212454,758.7179487179487,720.4395604395604,785.7142857142858,785.3113553113553,-0.802612,0.157837,0.571472,-9.039459,-4.037476,12.329254,1,2,1,4,2,55.000000
2023-09-01 17:45:50.805,,,,,,,,,,,,,,,,,,,,,,,,,,,,,,,,,,,,,,/muse/elements/jaw_clench
2023-09-01 17:45:50.895,,,,,,,,,,,,,,,,,,,,,,,,,,,,,,,,,,,,,,/muse/elements/blink
2023-09-01 17:45:51.757,1.319801511059643,-0.002200470042299194,0.2825272044940105,1.32493385569718,1.09172502579622,0.1596572806382225,0.2525115481837126,1.120608914197562,1.013550347950109,0.1577678823573443,0.6599394789776813,1.186943753039056,0.8644224505576976,1.335495330232688,1.197281288192567,0.7100986767517961,0.6951308114123503,1.001703949704717,1.08452011174995,0.6931591383923433,530.2564102564103,774.8351648351648,818.3516483516484,770.4029304029305,666.8498168498169,-0.726074,0.156555,0.670349,-2.586975,-21.959381,-7.379608,1,2,1,1,2,55.000000
2023-09-01 17:45:51.821,,,,,,,,,,,,,,,,,,,,,,,,,,,,,,,,,,,,,,/muse/elements/jaw_clench
2023-09-01 17:45:52.331,,,,,,,,,,,,,,,,,,,,,,,,,,,,,,,,,,,,,,/muse/elements/jaw_clench
2023-09-01 17:45:52.762,1.319801511059643,-0.002200470042299194,0.2825272044940105,1.32493385569718,1.09172502579622,0.1596572806382225,0.2525115481837126,1.120608914197562,1.013550347950109,0.1577678823573443,0.6599394789776813,1.186943753039056,0.8644224505576976,1.335495330232688,1.197281288192567,0.7100986767517961,0.6951308114123503,1.001703949704717,1.08452011174995,0.6931591383923433,777.2527472527473,863.8827838827839,747.032967032967,772.8205128205128,791.3553113553114,-0.109558,0.004761,0.980286,17.884521,-13.757324,-41.496277,1,2,1,1,2,55.000000
2023-09-01 17:45:53.758,1.319801511059643,-0.002200470042299194,0.2825272044940105,1.581506768706941,1.09172502579622,0.1596572806382225,0.2525115481837126,1.066745179622887,1.013550347950109,0.1577678823573443,0.6599394789776813,0.7235166586424211,0.8644224505576976,1.335495330232688,1.197281288192567,0.9613867980554968,0.6951308114123503,1.001703949704717,1.08452011174995,0.783160104256403,727.6923076923077,778.4615384615385,801.025641025641,794.5787545787546,877.5824175824176,0.062317,-0.001038,0.982361,-0.373840,-8.366547,-5.106659,1,2,1,1,2,55.000000
2023-09-01 17:45:54.758,1.319801511059643,0.3307846165953386,0.2825272044940105,1.412236426661306,1.09172502579622,0.2831926755986498,0.2525115481837126,1.03750992828251,1.013550347950109,0.5400256742444534,0.6599394789776813,0.7235166586424211,0.8644224505576976,1.264803335668913,1.197281288192567,0.9518021903915066,0.6951308114123503,1.280093103914103,1.08452011174995,0.707472536862184,704.7252747252747,776.0439560439561,763.5531135531136,780.8791208791209,749.4505494505495,0.060486,-0.035645,0.984070,4.044952,-3.775787,-2.228088,1,1,1,1,1,50.000000
2023-09-01 17:45:55.758,1.127064951643121,0.1525496869451509,0.2825272044940105,0.7878042816888677,0.7565937433510058,0.1124984674144643,0.2525115481837126,0.7293901767344037,0.7697534187942597,0.6282903507162267,0.6599394789776813,0.9171963154208598,0.7771803158507717,1.287191888137272,1.197281288192567,0.9011777538329246,0.5062487688306285,1.176221881449522,1.08452011174995,0.6666791991364541,660.8058608058608,805.4578754578755,791.3553113553114,790.5494505494506,723.2600732600732,0.064453,-0.053589,0.980042,2.287903,-4.149628,1.704712,1,1,1,1,1,50.000000
2023-09-01 17:45:56.170,,,,,,,,,,,,,,,,,,,,,,,,,,,,,,,,,,,,,,/muse/elements/jaw_clench
2023-09-01 17:45:56.507,,,,,,,,,,,,,,,,,,,,,,,,,,,,,,,,,,,,,,/muse/elements/jaw_clench
2023-09-01 17:45:56.758,1.087063782341828,-0.1491761264992057,0.2825272044940105,0.8057606957976703,0.7556321004530847,-0.01669984762928604,0.2525115481837126,0.5773184871109041,0.6644696437231488,0.5815626424537267,0.6599394789776813,0.9005101315778911,0.8510713996263681,1.291475669432818,1.197281288192567,0.9869302282601994,0.3198614760765895,1.109177939404859,1.08452011174995,0.6213029159955507,734.1391941391942,787.7289377289378,777.6556776556777,748.2417582417582,865.0915750915751,0.076233,-0.019409,0.986633,2.003784,-2.527161,-1.996307,1,1,1,1,1,50.000000
2023-09-01 17:45:56.976,,,,,,,,,,,,,,,,,,,,,,,,,,,,,,,,,,,,,,/muse/elements/blink
2023-09-01 17:45:57.758,1.087063782341828,-0.1491761264992057,0.2825272044940105,0.8265986010940162,0.7556321004530847,-0.01669984762928604,0.2525115481837126,0.6030986397915072,0.6644696437231488,0.5815626424537267,0.6599394789776813,0.8754773825326686,0.8510713996263681,1.291475669432818,1.197281288192567,1.020181391989245,0.3198614760765895,1.109177939404859,1.08452011174995,0.6247710758069198,730.1098901098901,812.3076923076924,764.7619047619048,774.8351648351648,804.6520146520147,-0.043396,-0.027710,0.982544,0.650482,6.863708,0.149536,1,1,1,1,1,50.000000
2023-09-01 17:45:58.527,,,,,,,,,,,,,,,,,,,,,,,,,,,,,,,,,,,,,,/muse/elements/blink
2023-09-01 17:45:58.618,,,,,,,,,,,,,,,,,,,,,,,,,,,,,,,,,,,,,,/muse/elements/jaw_clench
2023-09-01 17:45:58.758,1.087063782341828,-0.1491761264992057,0.2825272044940105,0.8265986010940162,0.7556321004530847,-0.01669984762928604,0.2525115481837126,0.6030986397915072,0.6644696437231488,0.5815626424537267,0.6599394789776813,0.8754773825326686,0.8510713996263681,1.291475669432818,1.197281288192567,1.020181391989245,0.3198614760765895,1.109177939404859,1.08452011174995,0.6247710758069198,673.6996336996338,804.2490842490843,792.1611721611722,751.8681318681319,705.934065934066,-0.171631,-0.041077,0.967224,4.695435,5.166473,-1.854248,1,2,1,1,2,50.000000
2023-09-01 17:45:59.036,,,,,,,,,,,,,,,,,,,,,,,,,,,,,,,,,,,,,,/muse/elements/jaw_clench
2023-09-01 17:45:59.327,,,,,,,,,,,,,,,,,,,,,,,,,,,,,,,,,,,,,,/muse/elements/blink
2023-09-01 17:45:59.758,1.087063782341828,-0.1491761264992057,0.2825272044940105,0.8265986010940162,0.7556321004530847,-0.01669984762928604,0.2525115481837126,0.6030986397915072,0.6644696437231488,0.5815626424537267,0.6599394789776813,0.8754773825326686,0.8510713996263681,1.291475669432818,1.197281288192567,1.020181391989245,0.3198614760765895,1.109177939404859,1.08452011174995,0.6247710758069198,685.3846153846154,813.919413919414,823.5897435897436,848.974358974359,845.7509157509157,-0.748230,0.043762,0.651794,41.877594,34.871826,-4.673004,1,2,1,1,2,50.000000
2023-09-01 17:45:59.927,,,,,,,,,,,,,,,,,,,,,,,,,,,,,,,,,,,,,,/muse/elements/blink
2023-09-01 17:46:00.758,1.087063782341828,-0.1491761264992057,0.2825272044940105,0.8265986010940162,0.7556321004530847,-0.01669984762928604,0.2525115481837126,0.6030986397915072,0.6644696437231488,0.5815626424537267,0.6599394789776813,0.8754773825326686,0.8510713996263681,1.291475669432818,1.197281288192567,1.020181391989245,0.3198614760765895,1.109177939404859,1.08452011174995,0.6247710758069198,725.6776556776557,840.1098901098901,873.956043956044,842.9304029304029,796.996336996337,-0.870422,0.096680,0.502502,-19.424744,-0.740204,18.235931,1,2,1,1,2,50.000000
2023-09-01 17:46:01.758,1.087063782341828,-0.1491761264992057,0.2825272044940105,0.8265986010940162,0.7556321004530847,-0.01669984762928604,0.2525115481837126,0.6030986397915072,0.6644696437231488,0.5815626424537267,0.6599394789776813,0.8754773825326686,0.8510713996263681,1.291475669432818,1.197281288192567,1.020181391989245,0.3198614760765895,1.109177939404859,1.08452011174995,0.6247710758069198,655.1648351648352,773.6263736263736,717.2161172161173,761.5384615384615,865.0915750915751,-0.839172,0.121765,0.503052,-6.781464,-5.211334,8.478699,1,2,1,1,2,50.000000
2023-09-01 17:46:02.757,1.087063782341828,-0.1491761264992057,0.2825272044940105,0.8265986010940162,0.7556321004530847,-0.01669984762928604,0.2525115481837126,0.6030986397915072,0.6644696437231488,0.5815626424537267,0.6599394789776813,0.8754773825326686,0.8510713996263681,1.291475669432818,1.197281288192567,1.020181391989245,0.3198614760765895,1.109177939404859,1.08452011174995,0.6247710758069198,658.7912087912088,779.6703296703297,821.5750915750916,731.3186813186813,726.4835164835165,-0.605042,0.090088,0.782776,6.616974,-62.827606,-18.086395,1,2,1,1,2,50.000000
2023-09-01 17:46:03.687,,,,,,,,,,,,,,,,,,,,,,,,,,,,,,,,,,,,,,/muse/elements/jaw_clench
2023-09-01 17:46:03.764,1.087063782341828,-0.1491761264992057,0.2825272044940105,1.528418925702644,0.7556321004530847,-0.01669984762928604,0.2525115481837126,1.212328002035798,0.6644696437231488,0.5815626424537267,0.6599394789776813,0.9383106870383764,0.8510713996263681,1.291475669432818,1.197281288192567,0.9183508889610248,0.3198614760765895,1.109177939404859,1.08452011174995,0.9952278292859404,659.1941391941392,821.5750915750916,833.2600732600733,716.8131868131868,681.3553113553114,0.036255,0.045898,0.984558,1.016846,-6.931000,-7.416992,1,1,1,1,1,50.000000
2023-09-01 17:46:04.758,1.087063782341828,0.1625004130867026,0.2825272044940105,1.577776643198887,0.7556321004530847,-0.1710249011021858,0.2525115481837126,1.237731368584141,0.6644696437231488,0.5718839184007235,0.6599394789776813,0.9383106870383764,0.8510713996263681,1.301433164504457,1.197281288192567,0.9292532905594203,0.3198614760765895,1.338412708171951,1.08452011174995,1.02569743271331,663.2234432234433,780.8791208791209,784.9084249084249,727.6923076923077,737.3626373626374,0.139709,-0.002441,0.974670,2.160797,-4.732819,11.663818,1,1,1,1,1,55.000000
2023-09-01 17:46:05.763,1.087063782341828,0.11129471558608,0.2825272044940105,1.577776643198887,0.7556321004530847,0.01123297196320186,0.2525115481837126,1.237731368584141,0.6644696437231488,0.5778224366859308,0.6599394789776813,0.9383106870383764,0.8510713996263681,1.164253191680154,1.197281288192567,0.9292532905594203,0.3198614760765895,1.272131592267229,1.08452011174995,1.02569743271331,716.4102564102565,796.5934065934066,793.7728937728938,769.5970695970697,690.2197802197802,0.161438,-0.055237,0.969788,0.441132,-0.740204,7.409515,1,2,1,1,2,55.000000
2023-09-01 17:46:06.757,0.9137162951004082,0.1786895270055248,0.2825272044940105,1.577776643198887,0.8836640889765199,0.1944901138304136,0.2525115481837126,1.237731368584141,0.540465332740247,0.679963336678275,0.6599394789776813,0.9383106870383764,0.786993661034491,1.02674419752825,1.197281288192567,0.9292532905594203,0.5083526275288202,0.9734204331364484,1.08452011174995,1.02569743271331,703.919413919414,811.5018315018315,807.8754578754579,774.4322344322345,796.1904761904763,0.205933,-0.008118,0.977600,1.435547,-6.953430,1.614990,1,1,1,1,1,55.000000
2023-09-01 17:46:07.758,0.7466382326458076,0.1626272672618324,0.2825272044940105,0.6578684703452451,0.9604480487314515,0.4081694912154133,0.2525115481837126,0.9644726885131333,0.3624153752622216,0.8060765499873788,0.6599394789776813,0.4601036097784017,0.7803250301689033,1.139967615677538,1.197281288192567,0.869108034350157,0.5492727279574496,1.020893661480353,1.08452011174995,0.6723188464742239,690.6227106227107,802.2344322344322,783.2967032967033,764.3589743589744,624.9450549450549,0.152283,0.004578,0.979553,2.437439,-5.555267,-3.222504,1,1,1,1,1,55.000000
2023-09-01 17:46:08.767,1.201231007172778,0.4513618847665792,-0.3979006224731682,1.158633296271387,0.6731759553216423,0.2271303873829814,-0.03635312713231374,0.9003136969692621,0.6970671651391749,0.6173271229637962,0.7018417595997957,0.7514887370020211,0.8977654034692817,1.063527091164062,1.481018467923556,1.026287856068437,0.5883848523698413,1.192315590241752,1.510721104613492,0.7629569786160232,681.7582417582418,789.7435897435897,809.8901098901099,778.0586080586081,660.4029304029305,-0.111450,0.015625,0.990967,-1.846771,12.680664,-12.247009,1,1,1,1,1,55.000000
2023-09-01 17:46:09.758,1.249238369346092,0.5212503137368099,0.2005427757722254,1.158633296271387,0.7148080051252674,-0.1369188962936095,0.5156430859936472,0.9003136969692621,0.6970671651391749,0.2900075002848858,0.8614257622491533,0.7514887370020211,0.9824756722512374,1.160544814319945,1.580214693198907,1.026287856068437,0.6482016627626601,1.078154708734127,1.368698808817951,0.7629569786160232,704.7252747252747,804.6520146520147,780.8791208791209,768.3882783882784,572.967032967033,-0.167725,-0.051880,0.972229,1.943970,-4.994507,7.626343,1,1,1,1,1,55.000000
2023-09-01 17:46:10.006,,,,,,,,,,,,,,,,,,,,,,,,,,,,,,,,,,,,,,/muse/elements/blink
2023-09-01 17:46:10.758,1.338726911699583,0.401597893928319,0.2005427757722254,1.158633296271387,0.8909094358735237,-0.06864133565977422,0.5156430859936472,0.9003136969692621,0.9038557412322581,0.4995095740974949,0.8614257622491533,0.7514887370020211,1.012225700202131,1.289932094139716,1.580214693198907,1.026287856068437,0.6706213595294914,1.070510748663585,1.368698808817951,0.7629569786160232,697.8754578754579,781.2820512820513,822.7838827838829,754.6886446886447,826.007326007326,-0.184021,-0.009949,0.966248,3.858032,9.622650,3.297272,1,1,1,1,1,55.000000
2023-09-01 17:46:11.138,,,,,,,,,,,,,,,,,,,,,,,,,,,,,,,,,,,,,,/muse/elements/jaw_clench
2023-09-01 17:46:11.226,,,,,,,,,,,,,,,,,,,,,,,,,,,,,,,,,,,,,,/muse/elements/blink
2023-09-01 17:46:11.758,1.078318176509007,0.401597893928319,0.2005427757722254,1.158633296271387,0.7859982321261558,-0.06864133565977422,0.5156430859936472,0.9003136969692621,0.8553041561342627,0.4995095740974949,0.8614257622491533,0.7514887370020211,0.9598638651508147,1.289932094139716,1.580214693198907,1.026287856068437,0.400038146335655,1.070510748663585,1.368698808817951,0.7629569786160232,542.7472527472528,796.1904761904763,825.6043956043957,778.0586080586081,607.2161172161173,-0.794495,0.092896,0.604065,-2.474823,-4.859924,8.194580,1,1,1,1,1,55.000000
2023-09-01 17:46:12.445,,,,,,,,,,,,,,,,,,,,,,,,,,,,,,,,,,,,,,/muse/elements/blink
2023-09-01 17:46:12.757,1.078318176509007,0.401597893928319,0.2005427757722254,1.158633296271387,0.7859982321261558,-0.06864133565977422,0.5156430859936472,0.9003136969692621,0.8553041561342627,0.4995095740974949,0.8614257622491533,0.7514887370020211,0.9598638651508147,1.289932094139716,1.580214693198907,1.026287856068437,0.400038146335655,1.070510748663585,1.368698808817951,0.7629569786160232,594.7252747252747,850.5860805860806,758.3150183150184,786.5201465201466,579.4139194139194,-0.773865,0.066284,0.622559,8.119812,-19.260254,-6.235657,1,1,1,1,1,55.000000
2023-09-01 17:46:13.763,1.078318176509007,0.401597893928319,0.2005427757722254,1.158633296271387,0.7859982321261558,-0.06864133565977422,0.5156430859936472,0.9003136969692621,0.8553041561342627,0.4995095740974949,0.8614257622491533,0.7514887370020211,0.9598638651508147,1.289932094139716,1.580214693198907,1.026287856068437,0.400038146335655,1.070510748663585,1.368698808817951,0.7629569786160232,682.1611721611722,763.1501831501831,779.2673992673992,712.3809523809524,698.6813186813187,-0.124634,0.097168,0.966980,16.254578,-55.081635,-33.511047,1,2,1,1,2,55.000000
2023-09-01 17:46:14.758,1.078318176509007,0.401597893928319,0.2005427757722254,1.158633296271387,0.7859982321261558,-0.06864133565977422,0.5156430859936472,0.9003136969692621,0.8553041561342627,0.4995095740974949,0.8614257622491533,0.7514887370020211,0.9598638651508147,1.289932094139716,1.580214693198907,1.026287856068437,0.400038146335655,1.070510748663585,1.368698808817951,0.7629569786160232,765.9706959706959,790.5494505494506,776.4468864468864,740.1831501831502,662.014652014652,-0.055176,0.042419,0.981323,6.063690,-3.005676,1.547699,1,2,1,1,2,55.000000
2023-09-01 17:46:15.765,1.078318176509007,0.401597893928319,0.2005427757722254,1.158633296271387,0.7859982321261558,-0.06864133565977422,0.5156430859936472,0.9003136969692621,0.8553041561342627,0.4995095740974949,0.8614257622491533,0.7514887370020211,0.9598638651508147,1.289932094139716,1.580214693198907,1.026287856068437,0.400038146335655,1.070510748663585,1.368698808817951,0.7629569786160232,753.8827838827839,809.8901098901099,784.5054945054945,761.1355311355312,772.014652014652,0.019226,0.053223,0.992371,1.712189,-6.003876,-1.286011,1,2,1,1,2,55.000000
2023-09-01 17:46:16.393,,,,,,,,,,,,,,,,,,,,,,,,,,,,,,,,,,,,,,/muse/elements/blink
2023-09-01 17:46:16.758,0.8289713577219965,0.2190061737903752,0.2005427757722254,0.8994852853051244,0.3511249927141024,0.2296795407403444,0.5156430859936472,0.4996182164807794,0.89709412578787,0.9766296795126943,0.8614257622491533,0.6696060174060553,0.9155665767372517,1.288951788509968,1.580214693198907,0.8063412598682251,0.7640394273236784,1.123321940392947,1.368698808817951,0.6189410433997657,782.4908424908425,783.2967032967033,794.5787545787546,776.4468864468864,663.6263736263736,-0.150452,0.048401,0.954956,0.500946,8.964691,-1.951447,1,1,1,1,1,55.000000
2023-09-01 17:46:17.757,0.8280358327855856,0.5241602660221345,0.2005427757722254,0.747118555892812,0.3620361905349292,0.5928921153764857,0.5156430859936472,0.5818370831830993,0.8953916810694272,0.9534435297212634,0.8614257622491533,0.6439206695491786,0.9123585102333799,1.266050130191687,1.580214693198907,0.7039286937575232,0.7664524211903194,0.9598258614507535,1.368698808817951,0.6508812928965197,675.7142857142858,797.3992673992674,815.5311355311355,755.8974358974359,615.2747252747253,-0.150452,0.008545,0.979919,1.794434,-7.289886,3.327179,1,1,1,1,1,55.000000
2023-09-01 17:46:17.828,,,,,,,,,,,,,,,,,,,,,,,,,,,,,,,,,,,,,,/muse/elements/jaw_clench
2023-09-01 17:46:18.202,,,,,,,,,,,,,,,,,,,,,,,,,,,,,,,,,,,,,,/muse/elements/blink
2023-09-01 17:46:18.758,0.8280358327855856,0.5241602660221345,0.2005427757722254,0.8652987267949127,0.3620361905349292,0.5928921153764857,0.5156430859936472,0.7378052574030936,0.8953916810694272,0.9534435297212634,0.8614257622491533,0.9521653110910727,0.9123585102333799,1.266050130191687,1.580214693198907,0.7639660086193714,0.7664524211903194,0.9598258614507535,1.368698808817951,0.684646271736689,772.8205128205128,807.8754578754579,784.1025641025641,776.8498168498169,681.3553113553114,-0.198792,0.007324,0.949402,3.790741,-7.865601,1.031799,1,1,1,1,1,55.000000
2023-09-01 17:46:19.336,,,,,,,,,,,,,,,,,,,,,,,,,,,,,,,,,,,,,,/muse/elements/jaw_clench
2023-09-01 17:46:19.764,0.8280358327855856,0.1341299621206939,0.2005427757722254,1.043142869099616,0.3620361905349292,0.08645803691435421,0.5156430859936472,0.7718131637417401,0.8953916810694272,0.5155454896188643,0.8614257622491533,0.9509395021484861,0.9123585102333799,1.287803688520589,1.580214693198907,0.8167894371296439,0.7664524211903194,1.083256149142151,1.368698808817951,0.7518802962075032,678.9377289377289,793.7728937728938,827.2161172161173,752.6739926739926,676.5201465201466,-0.157349,-0.002075,0.969055,3.177643,-6.243134,-2.945862,1,1,1,1,1,55.000000
2023-09-01 17:46:20.732,,,,,,,,,,,,,,,,,,,,,,,,,,,,,,,,,,,,,,/muse/elements/blink
2023-09-01 17:46:20.757,0.8280358327855856,0.2915622114724372,0.1809133808686117,1.043142869099616,0.3620361905349292,0.2290692922644024,0.2030168231029336,0.7718131637417401,0.8953916810694272,0.4043207764800543,1.009711013719914,0.9509395021484861,0.9123585102333799,1.245494029578771,1.49570882778736,0.8167894371296439,0.7664524211903194,1.170210437137838,1.294580507279834,0.7518802962075032,801.8315018315019,786.5201465201466,807.0695970695971,794.5787545787546,591.0989010989011,-0.205261,0.016479,0.956970,0.964508,10.639496,5.854340,1,1,1,1,1,55.000000
2023-09-01 17:46:20.887,,,,,,,,,,,,,,,,,,,,,,,,,,,,,,,,,,,,,,/muse/elements/jaw_clench
2023-09-01 17:46:21.354,,,,,,,,,,,,,,,,,,,,,,,,,,,,,,,,,,,,,,/muse/elements/jaw_clench
2023-09-01 17:46:21.484,,,,,,,,,,,,,,,,,,,,,,,,,,,,,,,,,,,,,,/muse/elements/blink
2023-09-01 17:46:21.758,0.8280358327855856,0.4703419203779916,0.1852789293407024,1.043142869099616,0.3620361905349292,0.3135555267633116,0.2482196507996353,0.7718131637417401,0.8953916810694272,0.206325239800046,1.009711013719914,0.9509395021484861,0.9123585102333799,1.211072821995888,1.525547878098472,0.8167894371296439,0.7664524211903194,1.23752615358918,1.303419558113566,0.7518802962075032,1071.391941391941,815.1282051282052,813.919413919414,831.6483516483516,789.3406593406594,-0.764648,0.059814,0.633911,-3.162689,13.592834,5.517883,1,2,1,1,2,55.000000
2023-09-01 17:46:22.185,,,,,,,,,,,,,,,,,,,,,,,,,,,,,,,,,,,,,,/muse/elements/jaw_clench
2023-09-01 17:46:22.383,,,,,,,,,,,,,,,,,,,,,,,,,,,,,,,,,,,,,,/muse/elements/jaw_clench
2023-09-01 17:46:22.561,,,,,,,,,,,,,,,,,,,,,,,,,,,,,,,,,,,,,,/muse/elements/jaw_clench
2023-09-01 17:46:22.758,0.8280358327855856,0.4703419203779916,0.1852789293407024,1.043142869099616,0.3620361905349292,0.3135555267633116,0.2482196507996353,0.7718131637417401,0.8953916810694272,0.206325239800046,1.009711013719914,0.9509395021484861,0.9123585102333799,1.211072821995888,1.525547878098472,0.8167894371296439,0.7664524211903194,1.23752615358918,1.303419558113566,0.7518802962075032,1184.212454212454,826.007326007326,777.6556776556777,857.032967032967,1004.505494505495,-0.872253,0.074402,0.474854,4.246826,-4.904785,-1.899109,1,2,1,1,2,55.000000
2023-09-01 17:46:22.804,,,,,,,,,,,,,,,,,,,,,,,,,,,,,,,,,,,,,,/muse/elements/jaw_clench
2023-09-01 17:46:23.313,,,,,,,,,,,,,,,,,,,,,,,,,,,,,,,,,,,,,,/muse/elements/jaw_clench
2023-09-01 17:46:23.760,1.064087314467317,0.4703419203779916,0.1852789293407024,0.8019555708718679,0.8744094801972404,0.3135555267633116,0.2482196507996353,0.7657328306384005,0.8683141131562504,0.206325239800046,1.009711013719914,0.829177102025356,1.046645685161777,1.211072821995888,1.525547878098472,1.07755548198242,0.8760100051811889,1.23752615358918,1.303419558113566,0.574425443377692,1023.846153846154,765.9706959706959,797.3992673992674,808.6813186813187,753.0769230769231,-0.740234,0.028381,0.647339,32.479248,-11.170349,-30.512848,1,1,1,1,1,55.000000
2023-09-01 17:46:24.016,,,,,,,,,,,,,,,,,,,,,,,,,,,,,,,,,,,,,,/muse/elements/blink
2023-09-01 17:46:24.106,,,,,,,,,,,,,,,,,,,,,,,,,,,,,,,,,,,,,,/muse/elements/jaw_clench
2023-09-01 17:46:24.286,,,,,,,,,,,,,,,,,,,,,,,,,,,,,,,,,,,,,,/muse/elements/blink
2023-09-01 17:46:24.534,,,,,,,,,,,,,,,,,,,,,,,,,,,,,,,,,,,,,,/muse/elements/jaw_clench
2023-09-01 17:46:24.735,,,,,,,,,,,,,,,,,,,,,,,,,,,,,,,,,,,,,,/muse/elements/blink
2023-09-01 17:46:24.735,,,,,,,,,,,,,,,,,,,,,,,,,,,,,,,,,,,,,,/muse/elements/jaw_clench
2023-09-01 17:46:24.758,1.269689796870346,0.4703419203779916,0.1852789293407024,1.144727210166673,0.9557711278776795,0.3135555267633116,0.2482196507996353,0.984353188570145,0.8606261030620944,0.206325239800046,1.009711013719914,1.10095263556097,1.06599254146836,1.211072821995888,1.525547878098472,0.9759329804921025,0.8483763799686275,1.23752615358918,1.303419558113566,0.6180885336749661,977.9120879120879,790.1465201465202,815.1282051282052,900.5494505494506,758.7179487179487,-0.816406,0.019775,0.575989,5.577698,12.202148,-1.226196,1,1,1,1,1,55.000000
2023-09-01 17:46:25.004,,,,,,,,,,,,,,,,,,,,,,,,,,,,,,,,,,,,,,/muse/elements/blink
2023-09-01 17:46:25.763,1.269689796870346,0.4703419203779916,0.1852789293407024,1.329433816438931,0.9557711278776795,0.3135555267633116,0.2482196507996353,1.154768180114106,0.8606261030620944,0.206325239800046,1.009711013719914,1.033408879637773,1.06599254146836,1.211072821995888,1.525547878098472,0.8149272340786831,0.8483763799686275,1.23752615358918,1.303419558113566,0.6698635935319586,910.2197802197802,756.7032967032967,835.2747252747253,796.996336996337,790.952380952381,-0.868713,0.120483,0.487488,-25.256653,1.420593,14.557343,1,1,1,1,1,50.000000
2023-09-01 17:46:26.640,,,,,,,,,,,,,,,,,,,,,,,,,,,,,,,,,,,,,,/muse/elements/jaw_clench
2023-09-01 17:46:26.758,1.269689796870346,0.4703419203779916,0.1852789293407024,1.329433816438931,0.9557711278776795,0.3135555267633116,0.2482196507996353,1.154768180114106,0.8606261030620944,0.206325239800046,1.009711013719914,1.033408879637773,1.06599254146836,1.211072821995888,1.525547878098472,0.8149272340786831,0.8483763799686275,1.23752615358918,1.303419558113566,0.6698635935319586,1165.274725274725,807.4725274725275,801.8315018315019,813.919413919414,902.5641025641025,-0.864380,0.162903,0.470764,-0.904694,-4.800110,-1.614990,1,1,1,1,1,50.000000
2023-09-01 17:46:27.758,1.269689796870346,0.4703419203779916,0.1852789293407024,0.5473845169248572,0.9557711278776795,0.3135555267633116,0.2482196507996353,0.3875985327923911,0.8606261030620944,0.206325239800046,1.009711013719914,0.704957087064234,1.06599254146836,1.211072821995888,1.525547878098472,1.046729013475941,0.8483763799686275,1.23752615358918,1.303419558113566,0.7988088669320477,1021.831501831502,791.3553113553114,797.3992673992674,891.6849816849817,1091.135531135531,-0.356689,0.105042,0.842773,25.241699,-101.138763,-46.782379,1,1,1,1,1,50.000000
2023-09-01 17:46:27.877,,,,,,,,,,,,,,,,,,,,,,,,,,,,,,,,,,,,,,/muse/elements/jaw_clench
2023-09-01 17:46:28.477,,,,,,,,,,,,,,,,,,,,,,,,,,,,,,,,,,,,,,/muse/elements/jaw_clench
2023-09-01 17:46:28.758,1.269689796870346,0.4703419203779916,0.1852789293407024,0.5002005533024299,0.9557711278776795,0.3135555267633116,0.2482196507996353,0.3898178627165911,0.8606261030620944,0.206325239800046,1.009711013719914,0.704957087064234,1.06599254146836,1.211072821995888,1.525547878098472,1.069334131260194,0.8483763799686275,1.23752615358918,1.303419558113566,0.802173741033229,788.5347985347986,766.7765567765568,771.2087912087912,789.7435897435897,811.0989010989011,-0.140991,-0.091553,0.978699,-6.983337,-3.992615,-0.119629,1,1,1,1,1,50.000000
2023-09-01 17:46:29.758,0.5943719372952935,0.4703419203779916,0.1852789293407024,0.5002005533024299,0.8871898818177882,0.3135555267633116,0.2482196507996353,0.3898178627165911,0.9361994565491005,0.206325239800046,1.009711013719914,0.704957087064234,0.7993183924008972,1.211072821995888,1.525547878098472,1.069334131260194,0.5939299490928458,1.23752615358918,1.303419558113566,0.802173741033229,845.7509157509157,760.7326007326008,783.6996336996338,801.025641025641,780.8791208791209,-0.074707,-0.151489,0.975281,0.515900,-9.674988,8.830109,1,1,1,1,1,50.000000
2023-09-01 17:46:30.757,0.8767748334050994,0.3329282568165249,0.1852789293407024,1.199609938667576,0.8933777357598371,0.01295681878164845,0.2482196507996353,1.056012403628118,0.9362100844615293,0.3900845706560508,1.009711013719914,0.8679192508786702,0.7220935218114707,1.093295234141949,1.525547878098472,0.9724648059522519,0.5548829460974567,1.087972744055035,1.303419558113566,0.773549444239806,796.996336996337,773.2234432234433,769.5970695970697,798.2051282051282,797.8021978021978,-0.078125,-0.047913,0.974060,7.663727,-3.372040,7.274933,1,1,1,1,1,50.000000
2023-09-01 17:46:31.766,0.9437836927274893,0.08769153061352686,-0.2889204437217187,0.7781995856731141,0.6685742591531045,-0.249335417492844,0.1420447998729641,0.5368154627521411,0.5680720879372663,0.6721327590766395,0.7719958621610653,0.5138597626330158,0.6466294095989661,0.9721094586466683,1.563793472808568,0.9772540065075145,0.4245556689724411,1.011252644601561,1.509168298954736,0.5943520278279941,1045.604395604396,811.9047619047619,763.956043956044,807.4725274725275,791.7582417582418,-0.037354,0.443298,0.872498,13.338623,-1.158905,3.484192,1,1,1,1,1,50.000000
2023-09-01 17:46:32.763,0.8883298542047333,0.02642006095181517,-0.2005223160317907,0.7781995856731141,0.5968524646642254,-0.1240825951350538,0.1631381007005994,0.5368154627521411,0.4004682357341127,0.8146950840646183,0.8739663156553544,0.5138597626330158,0.6668285007237679,0.9551236788641878,1.531117224976792,0.9772540065075145,0.3932537422910231,0.8577636909462226,1.460714673010687,0.5943520278279941,871.5384615384615,812.3076923076924,783.2967032967033,833.2600732600733,724.8717948717949,0.045532,0.458191,0.860229,2.056122,-4.613190,0.785065,1,1,1,1,1,50.000000
2023-09-01 17:46:33.758,0.8883298542047333,0.3983455008910947,0.1386346354114422,0.7781995856731141,0.5968524646642254,0.07306751051662873,0.4112854116065242,0.5368154627521411,0.4004682357341127,0.754698809561704,0.8703228037351067,0.5138597626330158,0.6668285007237679,1.108452733745222,1.382966183942101,0.9772540065075145,0.3932537422910231,0.8890023295880329,1.073829593770016,0.5943520278279941,611.2454212454213,795.3846153846154,818.7545787545788,791.7582417582418,720.0366300366301,0.077942,0.479858,0.857239,2.078552,-6.258087,-1.360779,1,1,1,1,1,50.000000
2023-09-01 17:46:34.758,0.8883298542047333,0.6512650577102401,0.2955483285520131,0.6581410592283337,0.5968524646642254,0.3325429148074764,0.4912585631893386,0.4663091667107822,0.4004682357341127,0.9685177669691507,0.7057149590935659,0.5422547235488889,0.6668285007237679,1.197805288776695,1.381093901347454,0.5481267409643764,0.3932537422910231,0.8642006859536727,0.9752374169549977,0.6354514809681345,502.8571428571429,807.0695970695971,799.8168498168499,794.5787545787546,668.0586080586081,0.075378,0.450195,0.879517,2.811279,-7.372131,10.116119,1,1,1,1,1,50.000000
2023-09-01 17:46:35.758,0.8883298542047333,0.9788394101710154,0.2955483285520131,0.4057140521548218,0.5968524646642254,0.7635025465789126,0.4912585631893386,0.3979513245476089,0.4004682357341127,0.9253877563252191,0.7057149590935659,0.6769640946915326,0.6668285007237679,0.7623858566695917,1.381093901347454,0.7059288490651298,0.3932537422910231,0.5474116184557919,0.9752374169549977,0.4580697306590231,740.1831501831502,797.8021978021978,847.7655677655678,826.8131868131868,744.6153846153846,-0.161987,0.308594,0.927368,-12.015228,1.614990,-35.514832,1,1,1,1,1,55.000000
2023-09-01 17:46:36.758,0.8883298542047333,0.9619774417693714,0.2955483285520131,0.4783631142357318,0.5968524646642254,0.7526051707907033,0.4912585631893386,0.5137867237065966,0.4004682357341127,0.5463433333971138,0.7057149590935659,0.8762462750794379,0.6668285007237679,0.7950817973504775,1.381093901347454,0.7764808591326651,0.3932537422910231,0.8001745567109162,0.9752374169549977,0.5552186372068909,583.040293040293,817.1428571428571,820.7692307692308,803.8461538461539,723.6630036630037,-0.043579,0.194336,0.987000,1.570129,1.173859,-0.119629,1,1,1,1,1,55.000000
2023-09-01 17:46:36.826,,,,,,,,,,,,,,,,,,,,,,,,,,,,,,,,,,,,,,/muse/elements/blink
2023-09-01 17:46:37.094,,,,,,,,,,,,,,,,,,,,,,,,,,,,,,,,,,,,,,/muse/elements/blink
2023-09-01 17:46:37.425,,,,,,,,,,,,,,,,,,,,,,,,,,,,,,,,,,,,,,/muse/elements/jaw_clench
2023-09-01 17:46:37.763,0.8883298542047333,-0.1079354206939387,0.2955483285520131,1.417960777943341,0.5968524646642254,-0.07447534804080133,0.4912585631893386,1.249651738446447,0.4004682357341127,0.3451803556329623,0.7057149590935659,1.423196092372339,0.6668285007237679,0.9757981063529965,1.381093901347454,1.027415104922702,0.3932537422910231,1.030394671467225,0.9752374169549977,0.7752932455482495,820.3663003663004,816.7399267399268,807.0695970695971,844.5421245421246,850.5860805860806,-0.274780,0.147949,0.952942,8.598328,6.624451,2.437439,1,1,1,1,1,55.000000
2023-09-01 17:46:38.148,,,,,,,,,,,,,,,,,,,,,,,,,,,,,,,,,,,,,,/muse/elements/blink
2023-09-01 17:46:38.148,,,,,,,,,,,,,,,,,,,,,,,,,,,,,,,,,,,,,,/muse/elements/jaw_clench
2023-09-01 17:46:38.649,,,,,,,,,,,,,,,,,,,,,,,,,,,,,,,,,,,,,,/muse/elements/blink
2023-09-01 17:46:38.757,0.8883298542047333,-0.2013790307952865,0.2955483285520131,1.597634936753344,0.5968524646642254,-0.03704841307191261,0.4912585631893386,1.397414684363858,0.4004682357341127,0.2781371086559771,0.7057149590935659,1.40152538938203,0.6668285007237679,0.9680690267777696,1.381093901347454,1.074349828691362,0.3932537422910231,1.013855601581243,0.9752374169549977,0.7534117629423815,766.7765567765568,806.2637362637363,828.4249084249085,967.032967032967,794.1758241758242,-0.822937,0.074341,0.552185,7.828217,5.188904,-5.540314,1,1,1,4,1,55.000000
2023-09-01 17:46:39.149,,,,,,,,,,,,,,,,,,,,,,,,,,,,,,,,,,,,,,/muse/elements/jaw_clench
2023-09-01 17:46:39.364,,,,,,,,,,,,,,,,,,,,,,,,,,,,,,,,,,,,,,/muse/elements/jaw_clench
2023-09-01 17:46:39.540,,,,,,,,,,,,,,,,,,,,,,,,,,,,,,,,,,,,,,/muse/elements/jaw_clench
2023-09-01 17:46:39.758,0.8883298542047333,-0.2013790307952865,0.2955483285520131,1.597634936753344,0.5968524646642254,-0.03704841307191261,0.4912585631893386,1.397414684363858,0.4004682357341127,0.2781371086559771,0.7057149590935659,1.40152538938203,0.6668285007237679,0.9680690267777696,1.381093901347454,1.074349828691362,0.3932537422910231,1.013855601581243,0.9752374169549977,0.7534117629423815,682.5641025641025,806.2637362637363,802.2344322344322,763.956043956044,693.040293040293,-0.840820,0.068359,0.533997,0.194397,-5.061798,1.742096,1,1,1,1,1,55.000000
2023-09-01 17:46:40.046,,,,,,,,,,,,,,,,,,,,,,,,,,,,,,,,,,,,,,/muse/elements/jaw_clench
2023-09-01 17:46:40.758,0.9608589455959919,-0.2119636036700868,0.2955483285520131,1.597634936753344,0.7541837737699233,0.1966779593327067,0.4912585631893386,1.397414684363858,0.6628814429002713,0.6017702877237157,0.7057149590935659,1.40152538938203,0.8805805209177384,1.415631001590499,1.381093901347454,1.074349828691362,0.5398161869744789,1.190742959258455,0.9752374169549977,0.7534117629423815,717.6190476190476,810.2930402930403,793.3699633699634,675.3113553113553,764.3589743589744,-0.122620,0.123352,0.975769,6.474915,-33.937225,-9.136658,1,1,1,1,1,55.000000
2023-09-01 17:46:41.760,0.9955586818240498,-0.2119636036700868,0.2955483285520131,1.597634936753344,0.810429051269198,0.1966779593327067,0.4912585631893386,1.397414684363858,0.5744421843610747,0.6017702877237157,0.7057149590935659,1.40152538938203,0.7725942606741913,1.415631001590499,1.381093901347454,1.074349828691362,0.5056605931529178,1.190742959258455,0.9752374169549977,0.7534117629423815,693.4432234432235,801.025641025641,811.9047619047619,690.6227106227107,686.5934065934066,-0.046204,-0.012817,0.978760,-2.863617,-0.328979,34.931641,1,1,1,1,1,55.000000
2023-09-01 17:46:42.666,,,,,,,,,,,,,,,,,,,,,,,,,,,,,,,,,,,,,,/muse/elements/jaw_clench
2023-09-01 17:46:42.757,1.369266295139164,1.0096182637662,0.2955483285520131,1.597634936753344,0.7492511892797681,0.5581658824785952,0.4912585631893386,1.397414684363858,0.9764023676497272,0.7909527036296757,0.7057149590935659,1.40152538938203,0.8179814629575641,1.227089729394978,1.381093901347454,1.074349828691362,0.6944677913536694,1.023052302444565,0.9752374169549977,0.7534117629423815,520.1831501831502,784.1025641025641,764.7619047619048,703.5164835164835,643.4798534798535,0.027222,0.000000,0.985901,2.631836,-4.867401,-7.529144,1,1,1,1,1,55.000000
2023-09-01 17:46:43.763,0.9282813319125253,0.4554630128681322,0.2955483285520131,1.082012193315239,0.5045432901229309,-0.0606313621550777,0.4912585631893386,0.8996922365336967,0.5320405459616568,0.6476399674421428,0.7057149590935659,0.918022312671493,0.8021177429627304,1.053703259109863,1.381093901347454,0.9786636617704914,0.5049122140335115,0.8548458790731643,0.9752374169549977,0.7633992739444229,585.4578754578755,785.3113553113553,774.0293040293041,762.3443223443223,715.2014652014652,0.018127,0.142456,0.977905,14.048920,-4.052429,8.493652,1,1,1,1,1,55.000000
2023-09-01 17:46:44.758,1.042630696288868,0.1404654199082322,0.2955483285520131,1.126109965301133,0.9358382089826203,0.02739852818941934,0.4912585631893386,0.9171833432062426,1.327166294090782,0.4869930923596607,0.7057149590935659,1.430724543761085,0.7791095230198177,0.9399847963308804,1.381093901347454,0.8113345982226331,0.4827694848507001,0.8735146174259837,0.9752374169549977,0.4949971000908638,595.1282051282052,794.981684981685,794.5787545787546,751.4652014652015,609.2307692307693,-0.043640,0.152222,0.982239,1.121521,-5.383301,-3.738403,1,1,1,1,1,55.000000
2023-09-01 17:46:45.758,1.451677775737237,0.6258319615952458,0.2955483285520131,1.588949410379517,1.389874739127523,0.5798134256606974,0.4912585631893386,1.532534537261274,1.368735823519287,0.6814298997281503,0.7057149590935659,1.469929171995244,0.7449315097170727,1.027360775607393,1.381093901347454,0.8489705747616332,0.3408684344449478,0.9391305685702768,0.9752374169549977,0.424501676394386,815.934065934066,826.8131868131868,785.7142857142858,786.5201465201466,559.6703296703297,-0.028687,0.185181,0.955200,9.645081,-7.170258,-0.463562,1,1,1,1,1,55.000000
2023-09-01 17:46:46.763,1.546557117673721,0.7745013562735085,0.2955483285520131,1.349804101870265,1.481028465650772,0.6079672881946275,0.4912585631893386,1.147575178826024,1.364087060858121,0.4941817885894867,0.7057149590935659,1.249559401157287,0.5866008034380201,1.011278585577171,1.381093901347454,0.9285031903289906,0.4217172823447413,0.8710388977188572,0.9752374169549977,0.4983849073238437,684.1758241758242,789.7435897435897,771.6117216117216,764.7619047619048,720.0366300366301,-0.041077,0.122498,0.975952,-3.222504,-5.869293,-6.669312,1,1,1,1,1,55.000000
2023-09-01 17:46:47.187,,,,,,,,,,,,,,,,,,,,,,,,,,,,,,,,,,,,,,/muse/elements/blink
2023-09-01 17:46:47.758,1.546557117673721,0.866646926386625,0.2955483285520131,1.389993610352487,1.481028465650772,0.6045517261930796,0.4912585631893386,1.2045411980256,1.364087060858121,0.3993165807847568,0.7057149590935659,1.210172601950866,0.5866008034380201,1.000600357313527,1.381093901347454,0.7525688561980654,0.4217172823447413,0.8783109868355704,0.9752374169549977,0.6581300749212082,699.8901098901099,790.952380952381,781.2820512820513,770.4029304029305,628.974358974359,-0.033020,0.344727,0.921509,-0.314026,-2.766418,-1.532745,1,1,1,1,1,55.000000
2023-09-01 17:46:48.076,,,,,,,,,,,,,,,,,,,,,,,,,,,,,,,,,,,,,,/muse/elements/blink
2023-09-01 17:46:48.764,1.546557117673721,0.866646926386625,0.2955483285520131,1.389993610352487,1.481028465650772,0.6045517261930796,0.4912585631893386,1.2045411980256,1.364087060858121,0.3993165807847568,0.7057149590935659,1.210172601950866,0.5866008034380201,1.000600357313527,1.381093901347454,0.7525688561980654,0.4217172823447413,0.8783109868355704,0.9752374169549977,0.6581300749212082,680.1465201465202,802.6373626373627,794.1758241758242,717.2161172161173,642.6739926739926,-0.176636,0.366272,0.885193,8.299255,9.069366,-16.658325,1,1,1,1,1,55.000000
2023-09-01 17:46:49.758,1.546557117673721,0.866646926386625,0.2955483285520131,1.15187482992375,1.481028465650772,0.6045517261930796,0.4912585631893386,1.162963151761318,1.364087060858121,0.3993165807847568,0.7057149590935659,1.379186710678241,0.5866008034380201,1.000600357313527,1.381093901347454,0.7970458015392282,0.4217172823447413,0.8783109868355704,0.9752374169549977,0.7354418232227112,817.948717948718,839.3040293040293,818.3516483516484,757.5091575091575,595.5311355311355,-0.282471,0.177917,0.900146,-57.780762,-7.185211,62.334137,1,1,1,1,1,55.000000
2023-09-01 17:46:50.133,,,,,,,,,,,,,,,,,,,,,,,,,,,,,,,,,,,,,,/muse/elements/jaw_clench
2023-09-01 17:46:50.758,0.6861821209918588,0.866646926386625,0.2955483285520131,0.851287314349737,0.5093002554414212,0.6045517261930796,0.4912585631893386,0.8689037412784915,1.031095605958031,0.3993165807847568,0.7057149590935659,1.312052476647999,1.274545957760326,1.000600357313527,1.381093901347454,0.7670581663066054,0.8550267356004941,0.8783109868355704,0.9752374169549977,0.6890810344721302,719.6336996336996,755.8974358974359,770,772.8205128205128,652.7472527472528,-0.264587,0.119995,0.956116,23.237915,-5.689850,-47.029114,1,1,1,1,1,55.000000
2023-09-01 17:46:51.728,,,,,,,,,,,,,,,,,,,,,,,,,,,,,,,,,,,,,,/muse/elements/blink
2023-09-01 17:46:51.758,1.127717122267149,0.866646926386625,0.2955483285520131,1.004378758628333,0.9143591048073215,0.6045517261930796,0.4912585631893386,1.099270980013106,1.145412562602473,0.3993165807847568,0.7057149590935659,1.199959874298667,1.093088088933365,1.000600357313527,1.381093901347454,1.070911099144552,0.8136689843884507,0.8783109868355704,0.9752374169549977,0.5915253036225865,829.6336996336996,834.8717948717949,772.8205128205128,794.5787545787546,698.6813186813187,-0.649292,0.091492,0.763184,11.626434,48.270264,0.186920,1,1,1,1,1,55.000000
2023-09-01 17:46:51.946,,,,,,,,,,,,,,,,,,,,,,,,,,,,,,,,,,,,,,/muse/elements/jaw_clench
2023-09-01 17:46:52.561,,,,,,,,,,,,,,,,,,,,,,,,,,,,,,,,,,,,,,/muse/elements/blink
2023-09-01 17:46:52.768,1.429281994967655,0.866646926386625,0.2955483285520131,0.9119613334638291,1.069420702902834,0.6045517261930796,0.4912585631893386,1.109713924176198,1.034001226474347,0.3993165807847568,0.7057149590935659,1.195030239386155,0.9279474010684812,1.000600357313527,1.381093901347454,1.076486344429576,0.7787112666991916,0.8783109868355704,0.9752374169549977,0.5829709114999729,690.2197802197802,809.0842490842491,770,759.5238095238095,620.1098901098901,-0.830261,0.151367,0.530518,7.820740,-6.706696,-4.702911,1,1,1,1,1,55.000000
2023-09-01 17:46:53.459,,,,,,,,,,,,,,,,,,,,,,,,,,,,,,,,,,,,,,/muse/elements/jaw_clench
2023-09-01 17:46:53.635,,,,,,,,,,,,,,,,,,,,,,,,,,,,,,,,,,,,,,/muse/elements/jaw_clench
2023-09-01 17:46:53.757,1.429281994967655,0.866646926386625,0.2955483285520131,0.9119613334638291,1.069420702902834,0.6045517261930796,0.4912585631893386,1.109713924176198,1.034001226474347,0.3993165807847568,0.7057149590935659,1.195030239386155,0.9279474010684812,1.000600357313527,1.381093901347454,1.076486344429576,0.7787112666991916,0.8783109868355704,0.9752374169549977,0.5829709114999729,809.4871794871796,815.5311355311355,794.981684981685,795.7875457875458,720.8424908424909,-0.867615,0.124939,0.470215,1.607513,-0.882263,-2.086029,1,1,1,1,1,55.000000
2023-09-01 17:46:53.812,,,,,,,,,,,,,,,,,,,,,,,,,,,,,,,,,,,,,,/muse/elements/blink
2023-09-01 17:46:53.969,,,,,,,,,,,,,,,,,,,,,,,,,,,,,,,,,,,,,,/muse/elements/blink
2023-09-01 17:46:54.757,1.429281994967655,0.866646926386625,0.2955483285520131,0.9119613334638291,1.069420702902834,0.6045517261930796,0.4912585631893386,1.109713924176198,1.034001226474347,0.3993165807847568,0.7057149590935659,1.195030239386155,0.9279474010684812,1.000600357313527,1.381093901347454,1.076486344429576,0.7787112666991916,0.8783109868355704,0.9752374169549977,0.5829709114999729,921.0989010989011,786.9230769230769,846.1538461538462,835.2747252747253,689.4139194139194,-0.859070,0.157471,0.490662,-31.200714,-7.095490,24.606171,1,2,1,1,2,55.000000
2023-09-01 17:46:54.777,,,,,,,,,,,,,,,,,,,,,,,,,,,,,,,,,,,,,,/muse/elements/jaw_clench
2023-09-01 17:46:55.758,1.429281994967655,0.866646926386625,0.2955483285520131,0.9119613334638291,1.069420702902834,0.6045517261930796,0.4912585631893386,1.109713924176198,1.034001226474347,0.3993165807847568,0.7057149590935659,1.195030239386155,0.9279474010684812,1.000600357313527,1.381093901347454,1.076486344429576,0.7787112666991916,0.8783109868355704,0.9752374169549977,0.5829709114999729,1124.981684981685,812.3076923076924,777.6556776556777,785.3113553113553,805.4578754578755,-0.772217,0.243103,0.565369,-5.106659,1.727142,6.273041,1,2,1,1,2,55.000000
2023-09-01 17:46:55.786,,,,,,,,,,,,,,,,,,,,,,,,,,,,,,,,,,,,,,/muse/elements/jaw_clench
2023-09-01 17:46:56.224,,,,,,,,,,,,,,,,,,,,,,,,,,,,,,,,,,,,,,/muse/elements/jaw_clench
2023-09-01 17:46:56.758,0.6325407835406639,0.866646926386625,0.2955483285520131,0.7714735186494862,1.049383897599389,0.6045517261930796,0.4912585631893386,0.4804850163666975,1.006264531248412,0.3993165807847568,0.7057149590935659,0.561513963683097,0.9691379514757914,1.000600357313527,1.381093901347454,1.094305723835084,0.8439837489955706,0.8783109868355704,0.9752374169549977,0.706698728963412,1030.29304029304,790.5494505494506,780.0732600732601,814.3223443223443,742.6007326007326,-0.772522,0.240662,0.567017,1.480408,-4.201965,-1.188812,1,1,1,1,1,50.000000
2023-09-01 17:46:57.031,,,,,,,,,,,,,,,,,,,,,,,,,,,,,,,,,,,,,,/muse/elements/jaw_clench
2023-09-01 17:46:57.627,,,,,,,,,,,,,,,,,,,,,,,,,,,,,,,,,,,,,,/muse/elements/jaw_clench
2023-09-01 17:46:57.758,0.4817215856658955,0.866646926386625,0.2955483285520131,0.5723182736822302,0.9214508099557264,0.6045517261930796,0.4912585631893386,0.5561403141138125,0.8038218750513232,0.3993165807847568,0.7057149590935659,0.5350752287262521,0.9320719159390255,1.000600357313527,1.381093901347454,1.03340981410853,0.563898292253331,0.8783109868355704,0.9752374169549977,0.7077281575660193,857.4358974358975,759.1208791208792,805.0549450549451,792.967032967033,793.7728937728938,-0.071167,0.138306,0.971313,-4.254303,-27.103424,-11.753540,1,1,1,1,1,50.000000
2023-09-01 17:46:58.766,0.4185956758706119,0.866646926386625,0.2955483285520131,0.447571320053428,0.92369840379547,0.6045517261930796,0.4912585631893386,0.6262167344384997,0.7854015487213022,0.3993165807847568,0.7057149590935659,0.4628934203562614,0.9376690675310707,1.000600357313527,1.381093901347454,0.8887331872385251,0.5373661101399532,0.8783109868355704,0.9752374169549977,0.7390742419922163,947.6923076923077,738.5714285714286,783.2967032967033,801.4285714285714,833.6630036630037,-0.035156,-0.105042,0.986694,-0.127106,-2.459869,-2.415009,1,1,1,1,1,50.000000
2023-09-01 17:46:58.865,,,,,,,,,,,,,,,,,,,,,,,,,,,,,,,,,,,,,,/muse/elements/jaw_clench
2023-09-01 17:46:59.134,,,,,,,,,,,,,,,,,,,,,,,,,,,,,,,,,,,,,,/muse/elements/blink
2023-09-01 17:46:59.398,,,,,,,,,,,,,,,,,,,,,,,,,,,,,,,,,,,,,,/muse/elements/jaw_clench
2023-09-01 17:46:59.758,0.4185956758706119,0.866646926386625,0.2955483285520131,0.447571320053428,0.92369840379547,0.6045517261930796,0.4912585631893386,0.6262167344384997,0.7854015487213022,0.3993165807847568,0.7057149590935659,0.4628934203562614,0.9376690675310707,1.000600357313527,1.381093901347454,0.8887331872385251,0.5373661101399532,0.8783109868355704,0.9752374169549977,0.7390742419922163,976.3003663003664,807.8754578754579,796.1904761904763,803.040293040293,836.4835164835165,-0.077881,-0.076721,0.976807,2.953339,-6.721649,-2.796326,1,1,1,1,1,50.000000
2023-09-01 17:47:00.066,,,,,,,,,,,,,,,,,,,,,,,,,,,,,,,,,,,,,,/muse/elements/blink
2023-09-01 17:47:00.353,,,,,,,,,,,,,,,,,,,,,,,,,,,,,,,,,,,,,,/muse/elements/jaw_clench
2023-09-01 17:47:00.758,0.4185956758706119,0.03028849660277576,0.2955483285520131,1.441258608237799,0.92369840379547,0.1762313207579679,0.4912585631893386,1.308770612369655,0.7854015487213022,0.7362947543689329,0.7057149590935659,1.050379646159637,0.9376690675310707,1.375055628160962,1.381093901347454,0.9536124193431131,0.5373661101399532,1.300604594468402,0.9752374169549977,0.7064311389344894,987.1794871794872,761.5384615384615,785.3113553113553,820.3663003663004,855.8241758241759,-0.037659,-0.018494,0.987000,6.684265,0.366364,-3.977661,1,1,1,1,1,50.000000
2023-09-01 17:47:01.468,,,,,,,,,,,,,,,,,,,,,,,,,,,,,,,,,,,,,,/muse/elements/jaw_clench
2023-09-01 17:47:01.765,0.4185956758706119,-0.04218068755898538,0.2955483285520131,1.086277691967283,0.92369840379547,0.2316179014470818,0.4912585631893386,1.051874685645834,0.7854015487213022,0.4482625656960693,0.7057149590935659,1.053181552207331,0.9376690675310707,1.418495196995992,1.381093901347454,1.038603618570082,0.5373661101399532,1.152094823379802,0.9752374169549977,0.7894809094019956,1081.465201465202,793.3699633699634,738.974358974359,842.1245421245421,839.3040293040293,-0.100159,-0.003662,0.981140,1.166382,-6.908569,-4.613190,1,1,1,1,1,50.000000
2023-09-01 17:47:02.758,0.7308215827535798,-0.06057333015086443,0.2955483285520131,0.5729065580199828,0.7496659776330122,0.2031847678380212,0.4912585631893386,0.7459100667059811,0.737623182806729,0.4917230437844297,0.7057149590935659,0.6863070402923296,0.7767258512486335,1.415070868303198,1.381093901347454,1.017583137108908,0.6289792871505849,1.093623499075724,0.9752374169549977,0.7122607514196622,935.6043956043957,805.4578754578755,828.4249084249085,827.6190476190476,784.1025641025641,-0.046692,0.025269,0.999390,2.699127,-6.938477,-3.185120,1,1,1,1,1,50.000000
2023-09-01 17:47:03.031,,,,,,,,,,,,,,,,,,,,,,,,,,,,,,,,,,,,,,/muse/elements/jaw_clench
2023-09-01 17:47:03.210,,,,,,,,,,,,,,,,,,,,,,,,,,,,,,,,,,,,,,/muse/elements/jaw_clench
2023-09-01 17:47:03.758,0.8363784622381629,-0.04411314993119225,0.2955483285520131,0.798970022373503,0.8051812368187037,0.2224400277191634,0.4912585631893386,0.6472620912432013,0.935834478569746,0.4381830327311058,0.7057149590935659,0.6228184495249522,0.8634796305852587,1.40712113736908,1.381093901347454,0.9770932544277966,0.634423599477298,1.140513267588279,0.9752374169549977,0.6673437925038799,845.7509157509157,764.3589743589744,788.5347985347986,796.996336996337,840.5128205128206,-0.017822,0.074219,0.985474,8.837585,-7.940369,-22.714539,1,1,1,1,1,50.000000
2023-09-01 17:47:04.758,1.0851614012456,-0.04411314993119225,0.2955483285520131,0.6243763037314625,0.873727913947259,0.2224400277191634,0.4912585631893386,0.7476099853312579,0.8188381133678,0.4381830327311058,0.7057149590935659,0.947238787839591,0.7219186617805653,1.40712113736908,1.381093901347454,0.7498842715188427,0.6566818851332312,1.140513267588279,0.9752374169549977,0.5519445738132603,758.3150183150184,779.6703296703297,806.6666666666667,772.4175824175825,761.5384615384615,-0.117126,-0.077881,0.993958,5.869293,-2.078552,8.172150,1,1,1,1,1,50.000000
2023-09-01 17:47:05.042,,,,,,,,,,,,,,,,,,,,,,,,,,,,,,,,,,,,,,/muse/elements/blink
2023-09-01 17:47:05.374,,,,,,,,,,,,,,,,,,,,,,,,,,,,,,,,,,,,,,/muse/elements/jaw_clench
2023-09-01 17:47:05.757,1.0851614012456,-0.04411314993119225,0.2955483285520131,0.5391252020968808,0.873727913947259,0.2224400277191634,0.4912585631893386,0.7880200944847828,0.8188381133678,0.4381830327311058,0.7057149590935659,0.953685210787263,0.7219186617805653,1.40712113736908,1.381093901347454,0.7433472541480091,0.6566818851332312,1.140513267588279,0.9752374169549977,0.6834540348131842,949.3040293040293,811.0989010989011,776.4468864468864,856.6300366300367,865.8974358974359,-0.262451,-0.072327,0.960632,2.953339,-2.983246,13.278809,1,1,1,1,1,50.000000
2023-09-01 17:47:06.355,,,,,,,,,,,,,,,,,,,,,,,,,,,,,,,,,,,,,,/muse/elements/blink
2023-09-01 17:47:06.443,,,,,,,,,,,,,,,,,,,,,,,,,,,,,,,,,,,,,,/muse/elements/jaw_clench
2023-09-01 17:47:06.765,1.0851614012456,-0.04411314993119225,0.2955483285520131,0.3963240103887472,0.873727913947259,0.2224400277191634,0.4912585631893386,0.7712725320146789,0.8188381133678,0.4381830327311058,0.7057149590935659,0.8339108691152309,0.7219186617805653,1.40712113736908,1.381093901347454,0.745404838141039,0.6566818851332312,1.140513267588279,0.9752374169549977,0.7528343714356694,831.2454212454213,846.5567765567765,833.6630036630037,942.0512820512821,815.5311355311355,-0.713440,0.004822,0.662903,25.907135,13.921814,-25.563202,1,1,1,1,1,55.000000
2023-09-01 17:47:07.767,1.0851614012456,-0.04411314993119225,0.2955483285520131,0.3963240103887472,0.873727913947259,0.2224400277191634,0.4912585631893386,0.7712725320146789,0.8188381133678,0.4381830327311058,0.7057149590935659,0.8339108691152309,0.7219186617805653,1.40712113736908,1.381093901347454,0.745404838141039,0.6566818851332312,1.140513267588279,0.9752374169549977,0.7528343714356694,1044.798534798535,828.8278388278388,804.6520146520147,924.3223443223443,893.6996336996338,-0.800842,0.042358,0.583679,2.257996,10.901184,6.512299,1,2,1,1,2,55.000000
2023-09-01 17:47:07.799,,,,,,,,,,,,,,,,,,,,,,,,,,,,,,,,,,,,,,/muse/elements/blink
2023-09-01 17:47:08.414,,,,,,,,,,,,,,,,,,,,,,,,,,,,,,,,,,,,,,/muse/elements/blink
2023-09-01 17:47:08.703,,,,,,,,,,,,,,,,,,,,,,,,,,,,,,,,,,,,,,/muse/elements/blink
2023-09-01 17:47:08.759,1.0851614012456,-0.04411314993119225,0.2955483285520131,0.3963240103887472,0.873727913947259,0.2224400277191634,0.4912585631893386,0.7712725320146789,0.8188381133678,0.4381830327311058,0.7057149590935659,0.8339108691152309,0.7219186617805653,1.40712113736908,1.381093901347454,0.745404838141039,0.6566818851332312,1.140513267588279,0.9752374169549977,0.7528343714356694,929.5604395604396,802.6373626373627,805.0549450549451,782.0879120879121,853.0036630036631,-0.729919,0.088379,0.648926,-33.054962,-8.433838,30.834351,1,2,1,1,2,55.000000
2023-09-01 17:47:09.407,,,,,,,,,,,,,,,,,,,,,,,,,,,,,,,,,,,,,,/muse/elements/blink
2023-09-01 17:47:09.758,1.0851614012456,-0.04411314993119225,0.2955483285520131,0.3963240103887472,0.873727913947259,0.2224400277191634,0.4912585631893386,0.7712725320146789,0.8188381133678,0.4381830327311058,0.7057149590935659,0.8339108691152309,0.7219186617805653,1.40712113736908,1.381093901347454,0.745404838141039,0.6566818851332312,1.140513267588279,0.9752374169549977,0.7528343714356694,709.5604395604396,798.6080586080586,802.6373626373627,784.9084249084249,857.8388278388279,-0.802612,0.104309,0.578491,-1.383209,-4.807587,4.777679,1,2,1,1,2,55.000000
2023-09-01 17:47:10.512,,,,,,,,,,,,,,,,,,,,,,,,,,,,,,,,,,,,,,/muse/elements/jaw_clench
2023-09-01 17:47:10.764,1.0851614012456,-0.04411314993119225,0.2955483285520131,0.7114114346493132,0.873727913947259,0.2224400277191634,0.4912585631893386,0.1620733862009363,0.8188381133678,0.4381830327311058,0.7057149590935659,0.3774430698918492,0.7219186617805653,1.40712113736908,1.381093901347454,0.900546182363506,0.6566818851332312,1.140513267588279,0.9752374169549977,0.5970999186898674,972.2710622710623,782.893772893773,785.7142857142858,780.4761904761905,830.8424908424909,-0.734802,0.110352,0.647400,9.203949,-17.854614,-8.747864,1,2,1,1,2,55.000000
2023-09-01 17:47:10.952,,,,,,,,,,,,,,,,,,,,,,,,,,,,,,,,,,,,,,/muse/elements/jaw_clench
2023-09-01 17:47:11.758,1.0851614012456,-0.04411314993119225,0.2955483285520131,0.9260286002501384,0.873727913947259,0.2224400277191634,0.4912585631893386,0.1732455160299592,0.8188381133678,0.4381830327311058,0.7057149590935659,0.4333081946329601,0.7219186617805653,1.40712113736908,1.381093901347454,0.9209679399276559,0.6566818851332312,1.140513267588279,0.9752374169549977,0.5886489401568601,849.3772893772895,821.978021978022,755.8974358974359,843.3333333333334,801.025641025641,-0.558228,0.044128,0.838928,18.146210,-55.216217,-24.337006,1,1,1,1,1,55.000000
2023-09-01 17:47:12.757,1.0851614012456,-0.04411314993119225,0.2955483285520131,0.9981086822918628,0.873727913947259,0.2224400277191634,0.4912585631893386,0.1709728536130446,0.8188381133678,0.4381830327311058,0.7057149590935659,0.4170509822065395,0.7219186617805653,1.40712113736908,1.381093901347454,0.9437845585120792,0.6566818851332312,1.140513267588279,0.9752374169549977,0.5516441810467974,590.2930402930403,756.3003663003664,791.7582417582418,756.3003663003664,734.5421245421246,-0.148987,-0.056641,0.968933,-1.465454,-5.009460,40.980377,1,1,1,1,1,55.000000
2023-09-01 17:47:13.383,,,,,,,,,,,,,,,,,,,,,,,,,,,,,,,,,,,,,,/muse/elements/jaw_clench
2023-09-01 17:47:13.651,,,,,,,,,,,,,,,,,,,,,,,,,,,,,,,,,,,,,,/muse/elements/jaw_clench
2023-09-01 17:47:13.758,1.0851614012456,-0.04411314993119225,0.2955483285520131,0.9981086822918628,0.873727913947259,0.2224400277191634,0.4912585631893386,0.1709728536130446,0.8188381133678,0.4381830327311058,0.7057149590935659,0.4170509822065395,0.7219186617805653,1.40712113736908,1.381093901347454,0.9437845585120792,0.6566818851332312,1.140513267588279,0.9752374169549977,0.5516441810467974,759.92673992674,800.6227106227107,809.0842490842491,760.3296703296703,877.1794871794872,-0.049927,-0.031433,0.985474,1.614990,-6.048737,0.538330,1,2,1,1,2,55.000000
2023-09-01 17:47:13.978,,,,,,,,,,,,,,,,,,,,,,,,,,,,,,,,,,,,,,/muse/elements/jaw_clench
2023-09-01 17:47:14.178,,,,,,,,,,,,,,,,,,,,,,,,,,,,,,,,,,,,,,/muse/elements/jaw_clench
2023-09-01 17:47:14.355,,,,,,,,,,,,,,,,,,,,,,,,,,,,,,,,,,,,,,/muse/elements/jaw_clench
2023-09-01 17:47:14.595,,,,,,,,,,,,,,,,,,,,,,,,,,,,,,,,,,,,,,/muse/elements/blink
2023-09-01 17:47:14.686,,,,,,,,,,,,,,,,,,,,,,,,,,,,,,,,,,,,,,/muse/elements/jaw_clench
2023-09-01 17:47:14.757,0.8713914402434626,-0.04411314993119225,0.2955483285520131,0.9818452920347398,0.6002921685077497,0.2224400277191634,0.4912585631893386,0.8022251715003629,0.7583183846578042,0.4381830327311058,0.7057149590935659,1.078665961095684,1.080073076928496,1.40712113736908,1.381093901347454,1.089299855908722,0.8645887648454611,1.140513267588279,0.9752374169549977,0.7435941686558124,689.0109890109891,780.4761904761905,757.1062271062272,805.0549450549451,811.5018315018315,-0.113953,-0.067139,0.974182,1.772003,-2.669220,31.507263,1,1,1,1,1,55.000000
2023-09-01 17:47:15.758,0.8548499205796384,-0.04411314993119225,0.2955483285520131,1.369675557401775,0.5616226952204614,0.2224400277191634,0.4912585631893386,1.293158608740615,0.7583183846578042,0.4381830327311058,0.7057149590935659,1.175094855178529,1.081318506447113,1.40712113736908,1.381093901347454,1.104358161981759,0.8807403076964655,1.140513267588279,0.9752374169549977,0.7985543300621527,610.0366300366301,849.7802197802198,754.6886446886447,713.5897435897436,685.3846153846154,-0.087463,-0.032227,0.981873,2.459869,-4.157104,2.743988,1,1,1,1,1,55.000000
2023-09-01 17:47:16.334,,,,,,,,,,,,,,,,,,,,,,,,,,,,,,,,,,,,,,/muse/elements/jaw_clench
2023-09-01 17:47:16.758,0.6957492696946863,-0.04411314993119225,0.2955483285520131,0.748911309568455,0.5804867938994956,0.2224400277191634,0.4912585631893386,0.5112197193816215,0.468716003649831,0.4381830327311058,0.7057149590935659,0.7095341451021836,0.8083226184315147,1.40712113736908,1.381093901347454,1.002378361462726,0.7567854494087509,1.140513267588279,0.9752374169549977,0.9606784779655065,590.6959706959707,777.6556776556777,847.7655677655678,773.2234432234433,523.8095238095239,-0.088196,-0.025940,0.985229,1.786957,-3.282318,-4.029999,1,1,1,1,1,55.000000
2023-09-01 17:47:16.783,,,,,,,,,,,,,,,,,,,,,,,,,,,,,,,,,,,,,,/muse/elements/jaw_clench
2023-09-01 17:47:17.405,,,,,,,,,,,,,,,,,,,,,,,,,,,,,,,,,,,,,,/muse/elements/jaw_clench
2023-09-01 17:47:17.536,,,,,,,,,,,,,,,,,,,,,,,,,,,,,,,,,,,,,,/muse/elements/blink
2023-09-01 17:47:17.736,,,,,,,,,,,,,,,,,,,,,,,,,,,,,,,,,,,,,,/muse/elements/jaw_clench
2023-09-01 17:47:17.757,0.3121811154053615,-0.04411314993119225,0.2955483285520131,0.6495875186373979,0.4083125616863267,0.2224400277191634,0.4912585631893386,0.5416178768656214,0.4561885728041781,0.4381830327311058,0.7057149590935659,0.8581221275620559,0.7159211663033886,1.40712113736908,1.381093901347454,1.023861799458138,0.8230540917473064,1.140513267588279,0.9752374169549977,1.003766477219542,686.1904761904763,730.1098901098901,770.8058608058608,759.92673992674,647.5091575091575,-0.026001,0.352478,0.933716,-10.803986,-24.591217,-60.278015,1,1,1,1,1,55.000000
2023-09-01 17:47:18.757,0.1144992418166957,-0.04411314993119225,0.2955483285520131,0.7741803461787965,0.3187120455160057,0.2224400277191634,0.4912585631893386,0.4805401196070203,0.4075823607693956,0.4381830327311058,0.7057149590935659,0.7523897034377346,0.660340252405094,1.40712113736908,1.381093901347454,1.060401998897443,0.8041102876614985,1.140513267588279,0.9752374169549977,0.9343647861461486,718.021978021978,791.3553113553114,795.7875457875458,767.5824175824176,701.0989010989011,-0.107605,0.056580,0.979004,-4.456177,-2.317810,4.239349,1,1,1,1,1,55.000000
2023-09-01 17:47:19.572,,,,,,,,,,,,,,,,,,,,,,,,,,,,,,,,,,,,,,/muse/elements/blink
2023-09-01 17:47:19.757,0.1144992418166957,-0.04411314993119225,0.2955483285520131,0.928117574495352,0.3187120455160057,0.2224400277191634,0.4912585631893386,0.9555485560009379,0.4075823607693956,0.4381830327311058,0.7057149590935659,1.091982395558052,0.660340252405094,1.40712113736908,1.381093901347454,0.7081905144709856,0.8041102876614985,1.140513267588279,0.9752374169549977,0.3744812584371068,694.2490842490843,803.8461538461539,817.1428571428571,736.959706959707,535.8974358974359,-0.236877,-0.010010,0.929138,-1.480408,7.349701,49.638519,1,1,1,1,1,55.000000
2023-09-01 17:47:20.261,,,,,,,,,,,,,,,,,,,,,,,,,,,,,,,,,,,,,,/muse/elements/jaw_clench
2023-09-01 17:47:20.757,0.1144992418166957,-0.04411314993119225,0.2955483285520131,1.116802738247372,0.3187120455160057,0.2224400277191634,0.4912585631893386,1.253354541658906,0.4075823607693956,0.4381830327311058,0.7057149590935659,1.380776123601935,0.660340252405094,1.40712113736908,1.381093901347454,0.8406521885462374,0.8041102876614985,1.140513267588279,0.9752374169549977,0.6067254284534959,513.7362637362637,776.4468864468864,796.996336996337,748.2417582417582,602.3809523809524,-0.270630,0.097351,0.928772,5.607605,-10.385284,-26.938934,1,1,1,1,1,55.000000
2023-09-01 17:47:20.974,,,,,,,,,,,,,,,,,,,,,,,,,,,,,,,,,,,,,,/muse/elements/jaw_clench
2023-09-01 17:47:21.757,0.9679993233351065,0.3761109463217793,0.2955483285520131,0.937765940204992,1.144145781956037,0.3731295328289071,0.4912585631893386,0.8886813840519687,1.051721934826235,0.6846745648650492,0.7057149590935659,1.077750627147303,0.9025258687223137,1.247210865672412,1.381093901347454,0.8759712244132999,0.7864365415727705,1.262635587933683,0.9752374169549977,0.7225198884145058,703.5164835164835,803.8461538461539,763.1501831501831,755.8974358974359,703.919413919414,0.129822,0.229614,0.953247,2.923431,-14.811554,1.846771,1,1,1,1,1,55.000000
2023-09-01 17:47:22.768,1.006765772233099,0.3027611224606704,0.2955483285520131,0.6225930210413884,0.4387491882374576,0.2543538665907017,0.4912585631893386,0.3983257240401667,0.8152171797219204,0.6691331538821541,0.7057149590935659,0.4525812818417492,1.029669828307554,1.172211264040794,1.381093901347454,0.8380116458562737,0.7472241385628591,1.089642934339964,0.9752374169549977,0.3194556578280978,696.2637362637363,816.7399267399268,804.6520146520147,780.0732600732601,726.0805860805862,0.278625,0.328186,0.883728,3.185120,-8.493652,-5.106659,1,1,1,1,1,55.000000
2023-09-01 17:47:23.757,0.8728498284145308,0.1498816748166761,0.2900461129485198,0.5123834332313758,0.3654240082817422,-0.02349914046325988,0.206670162446499,0.3730658507149937,1.061956368492723,0.09912465484264769,0.7586249085620993,0.8937848800163198,0.8846966502683468,1.025883777983079,1.206800032150999,0.8148157967752016,0.6420019551400664,0.8938654079338804,1.122456509336305,0.3724662672781928,704.3223443223443,787.3260073260074,782.893772893773,755.8974358974359,763.5531135531136,0.290588,0.326965,0.881897,1.600037,-1.906586,5.921631,1,1,1,1,1,55.000000
2023-09-01 17:47:24.011,,,,,,,,,,,,,,,,,,,,,,,,,,,,,,,,,,,,,,/muse/elements/blink
2023-09-01 17:47:24.757,0.8386928067871793,0.2792758991251977,-0.08320341124107251,1.024603410549956,0.7013893771133718,-0.03036022241796272,-0.04045887451908227,0.6520235156488904,1.086502536748856,0.5162337711078099,0.6628679209431102,1.173052397691846,0.7688690742976266,1.005611225899267,1.142740082844595,0.8072896652065482,0.624823247012872,0.8679187807657224,0.9907388245252435,0.6119534635655834,710.7692307692308,799.4139194139194,783.6996336996338,731.7216117216118,709.9633699633699,0.298584,0.350708,0.868286,4.112244,-3.656158,-2.340240,1,1,1,1,1,55.000000
2023-09-01 17:47:25.763,0.7212641873171241,0.06671800592611798,0.2216829573582001,1.338091065640168,0.5685000575411948,-0.1493197619282425,0.2699806603797278,0.8481333071486484,0.8833037762392481,0.4543657007865707,0.702744662152608,1.143918190529265,0.7580672147399021,0.9853917946671354,1.411531132818481,0.8001056644092815,0.5677436207108244,0.7948667307118911,1.094108850047795,0.4647094745781425,674.5054945054945,798.2051282051282,827.2161172161173,775.6410256410256,566.1172161172161,0.221680,0.427002,0.857727,6.639404,-2.669220,-7.312317,1,1,1,1,1,55.000000
2023-09-01 17:47:26.767,0.9772781576884357,0.5519552231926621,0.1088652841255202,0.9838222071238614,0.4586647617775739,0.21752079499864,0.389303091339583,0.5750472354904762,0.8454663701111659,0.5444651964594718,1.022269696930013,0.7230459584524415,0.8143749400036312,0.8014683431240133,1.418155125446186,0.6058888082969546,0.7441950956974119,0.5584171080196429,1.12226622602923,0.4965774357397171,748.6446886446887,797.8021978021978,809.4871794871796,770,675.3113553113553,0.217346,0.425781,0.855164,2.115936,-3.484192,-0.276642,1,1,1,1,1,55.000000
2023-09-01 17:47:27.325,,,,,,,,,,,,,,,,,,,,,,,,,,,,,,,,,,,,,,/muse/elements/blink
2023-09-01 17:47:27.325,,,,,,,,,,,,,,,,,,,,,,,,,,,,,,,,,,,,,,/muse/elements/jaw_clench
2023-09-01 17:47:27.762,0.7355146146476179,0.3798573603186126,0.05945202742331639,0.7759196410497515,0.3808827659755548,0.1638297247757014,0.552506090548093,0.4847932763275469,0.4785117149740824,0.2660894871158973,1.024539520134762,0.4323092366042886,0.6212093961220794,0.6321275057900893,1.341163346340901,0.5619773734474369,0.9197923516954969,0.7078668893363573,1.133315450828346,0.388042508958499,654.7619047619048,785.3113553113553,790.952380952381,859.4505494505495,887.6556776556777,-0.846313,0.154114,0.527771,-15.589142,6.160889,1.143951,1,1,1,1,1,45.000000
2023-09-01 17:47:28.010,,,,,,,,,,,,,,,,,,,,,,,,,,,,,,,,,,,,,,/muse/elements/jaw_clench
2023-09-01 17:47:28.765,0.7981562426851563,-0.04240249386134893,0.1448243202676311,0.4997345798076051,0.4471356672335043,-0.416436730925224,0.384419577052761,0.3066731818728077,0.2873132553954156,0.104237637529731,0.778727655432275,0.2915451233688231,0.6628843918256757,0.5617290586419865,1.303165442570376,0.5347047148994098,0.9335146032541195,0.8282863929491111,1.145463874775081,0.2235557034366681,666.8498168498169,767.5824175824176,799.4139194139194,761.941391941392,633.0036630036631,-0.770569,0.121338,0.617554,2.960815,-33.092346,2.108459,1,1,1,1,1,45.000000
2023-09-01 17:47:29.750,,,,,,,,,,,,,,,,,,,,,,,,,,,,,,,,,,,,,,/muse/elements/blink
2023-09-01 17:47:29.761,0.7981562426851563,-0.04240249386134893,0.1448243202676311,0.4997345798076051,0.4471356672335043,-0.416436730925224,0.384419577052761,0.3066731818728077,0.2873132553954156,0.104237637529731,0.778727655432275,0.2915451233688231,0.6628843918256757,0.5617290586419865,1.303165442570376,0.5347047148994098,0.9335146032541195,0.8282863929491111,1.145463874775081,0.2235557034366681,745.4212454212454,780.8791208791209,807.0695970695971,701.0989010989011,913.4432234432235,-0.028015,0.060547,0.985046,-3.573914,-4.972076,-10.235748,1,1,1,1,1,45.000000
2023-09-01 17:47:30.759,0.7981562426851563,-0.04240249386134893,0.1448243202676311,0.4997345798076051,0.4471356672335043,-0.416436730925224,0.384419577052761,0.3066731818728077,0.2873132553954156,0.104237637529731,0.778727655432275,0.2915451233688231,0.6628843918256757,0.5617290586419865,1.303165442570376,0.5347047148994098,0.9335146032541195,0.8282863929491111,1.145463874775081,0.2235557034366681,763.1501831501831,786.1172161172161,811.9047619047619,776.4468864468864,636.2271062271062,0.194275,0.202271,0.962463,13.667603,-14.811554,-15.514374,1,2,1,1,2,45.000000
2023-09-01 17:47:31.762,0.7981562426851563,-0.04240249386134893,0.1448243202676311,0.9158699380737164,0.4471356672335043,-0.416436730925224,0.384419577052761,0.3957636186428624,0.2873132553954156,0.104237637529731,0.778727655432275,0.8175214098422653,0.6628843918256757,0.5617290586419865,1.303165442570376,0.8716435639107463,0.9335146032541195,0.8282863929491111,1.145463874775081,0.4540416726899273,787.3260073260074,793.7728937728938,822.3809523809524,769.1941391941392,635.8241758241759,0.195190,0.198486,0.934570,0.224304,19.462128,-4.702911,1,2,1,1,2,45.000000
2023-09-01 17:47:32.757,0.9336387449336457,0.1325269454238095,0.1448243202676311,1.227444833972703,1.078994011342995,0.1104466376555428,0.384419577052761,1.030389190949533,1.286347917516923,0.3674915639822866,0.778727655432275,1.369409011772795,0.799310975550353,1.075882036147817,1.303165442570376,0.8925102404712492,0.9180446700828662,1.191220856413596,1.145463874775081,0.3767151561203518,834.0659340659341,788.1318681318681,789.3406593406594,802.2344322344322,690.2197802197802,-0.089966,0.145142,0.964050,-2.542114,-10.789032,7.050629,1,1,1,1,1,45.000000
2023-09-01 17:47:33.758,0.8302882213008932,0.2725910009881195,0.1448243202676311,1.16108888258822,0.8436170677072173,0.2223890354065207,0.384419577052761,1.047148137086628,1.307876856985712,0.6207511805910436,0.778727655432275,1.34261191527305,0.9067560618981613,1.177640181891388,1.303165442570376,0.9035649154931282,0.9032393931948055,1.0541298080685,1.145463874775081,0.548370061056307,876.3736263736264,776.0439560439561,781.2820512820513,839.7069597069598,815.934065934066,-0.022400,0.193726,0.969421,3.917847,-3.828125,5.301056,1,1,1,1,1,45.000000
2023-09-01 17:47:33.761,,,,,,,,,,,,,,,,,,,,,,,,,,,,,,,,,,,,,,/muse/elements/blink
2023-09-01 17:47:34.767,0.855315972713071,0.2690608937572626,-0.2757288332334798,1.302134180713473,0.6582118651000418,0.1935860708687909,-0.02741156659771611,1.24466757658616,0.8759745468634923,0.7809905438821362,0.6068969817703574,1.323249292053067,0.9269290276881506,1.150556889044874,1.533675810371476,0.9134466365132345,0.8369135717814687,0.997613536559093,1.177229183285235,0.5798556434588021,833.6630036630037,796.5934065934066,803.8461538461539,809.8901098901099,761.941391941392,-0.016785,0.196167,0.968567,2.250519,-3.357086,0.590668,1,1,1,1,1,45.000000
2023-09-01 17:47:35.216,,,,,,,,,,,,,,,,,,,,,,,,,,,,,,,,,,,,,,/muse/elements/blink
2023-09-01 17:47:35.758,0.855315972713071,0.3917750901499951,-0.249980659357227,1.386078473780421,0.6582118651000418,0.05398024226536806,-0.02367589779145534,1.325599274700823,0.8759745468634923,0.6083529818651157,0.6050029770359582,1.31822047316481,0.9269290276881506,1.131434227350264,1.532925423675639,0.9272159602578511,0.8369135717814687,0.9771045289893346,1.157566513178928,0.5667263905825526,754.2857142857143,763.5531135531136,793.3699633699634,826.007326007326,771.6117216117216,-0.053345,0.025269,1.002075,3.828125,-19.163055,0.261688,1,1,1,1,1,45.000000
2023-09-01 17:47:36.759,0.855315972713071,0.4353627630408467,-0.249980659357227,1.386078473780421,0.6582118651000418,0.06357457282504668,-0.02367589779145534,1.325599274700823,0.8759745468634923,0.5883737234123326,0.6050029770359582,1.31822047316481,0.9269290276881506,1.124320731069332,1.532925423675639,0.9272159602578511,0.8369135717814687,0.9622952632434423,1.157566513178928,0.5667263905825526,857.032967032967,782.4908424908425,821.1721611721612,822.3809523809524,790.952380952381,-0.082458,0.051697,0.983582,8.590851,15.140533,-31.940918,1,2,1,1,2,45.000000
2023-09-01 17:47:36.815,,,,,,,,,,,,,,,,,,,,,,,,,,,,,,,,,,,,,,/muse/elements/blink
2023-09-01 17:47:37.164,,,,,,,,,,,,,,,,,,,,,,,,,,,,,,,,,,,,,,/muse/elements/jaw_clench
2023-09-01 17:47:37.232,,,,,,,,,,,,,,,,,,,,,,,,,,,,,,,,,,,,,,/muse/elements/blink
2023-09-01 17:47:37.768,0.855315972713071,0.4353627630408467,-0.249980659357227,1.386078473780421,0.6582118651000418,0.06357457282504668,-0.02367589779145534,1.325599274700823,0.8759745468634923,0.5883737234123326,0.6050029770359582,1.31822047316481,0.9269290276881506,1.124320731069332,1.532925423675639,0.9272159602578511,0.8369135717814687,0.9622952632434423,1.157566513178928,0.5667263905825526,861.0622710622711,846.5567765567765,786.1172161172161,797.3992673992674,764.7619047619048,-0.174805,0.160339,0.968201,3.334656,-7.222595,-3.536530,1,2,1,1,2,55.000000
2023-09-01 17:47:38.543,,,,,,,,,,,,,,,,,,,,,,,,,,,,,,,,,,,,,,/muse/elements/jaw_clench
2023-09-01 17:47:38.631,,,,,,,,,,,,,,,,,,,,,,,,,,,,,,,,,,,,,,/muse/elements/blink
2023-09-01 17:47:38.758,0.855315972713071,0.4353627630408467,-0.249980659357227,1.11048222371918,0.6582118651000418,0.06357457282504668,-0.02367589779145534,1.222496098057806,0.8759745468634923,0.5883737234123326,0.6050029770359582,1.110337504324282,0.9269290276881506,1.124320731069332,1.532925423675639,1.075015303770669,0.8369135717814687,0.9622952632434423,1.157566513178928,0.9943696046966035,839.3040293040293,813.1135531135532,760.7326007326008,828.8278388278388,835.6776556776557,-0.196045,0.080444,0.956848,0.994415,-7.873077,-8.987122,1,1,1,1,1,55.000000
2023-09-01 17:47:38.913,,,,,,,,,,,,,,,,,,,,,,,,,,,,,,,,,,,,,,/muse/elements/jaw_clench
2023-09-01 17:47:39.763,0.855315972713071,0.4353627630408467,-0.249980659357227,1.11048222371918,0.6582118651000418,0.06357457282504668,-0.02367589779145534,1.222496098057806,0.8759745468634923,0.5883737234123326,0.6050029770359582,1.110337504324282,0.9269290276881506,1.124320731069332,1.532925423675639,1.075015303770669,0.8369135717814687,0.9622952632434423,1.157566513178928,0.9943696046966035,806.6666666666667,810.6959706959707,813.1135531135532,796.1904761904763,745.4212454212454,-0.113464,0.128479,0.969788,1.629944,-6.145935,-2.287903,1,1,1,1,1,55.000000
2023-09-01 17:47:40.277,,,,,,,,,,,,,,,,,,,,,,,,,,,,,,,,,,,,,,/muse/elements/jaw_clench
2023-09-01 17:47:40.758,0.855315972713071,0.4353627630408467,-0.249980659357227,1.11048222371918,0.6582118651000418,0.06357457282504668,-0.02367589779145534,1.222496098057806,0.8759745468634923,0.5883737234123326,0.6050029770359582,1.110337504324282,0.9269290276881506,1.124320731069332,1.532925423675639,1.075015303770669,0.8369135717814687,0.9622952632434423,1.157566513178928,0.9943696046966035,776.8498168498169,810.2930402930403,794.1758241758242,787.3260073260074,691.4285714285714,-0.266113,0.093323,0.936279,2.332764,2.123413,-1.360779,1,2,1,1,2,55.000000
2023-09-01 17:47:41.757,0.855315972713071,0.4353627630408467,-0.249980659357227,1.11048222371918,0.6582118651000418,0.06357457282504668,-0.02367589779145534,1.222496098057806,0.8759745468634923,0.5883737234123326,0.6050029770359582,1.110337504324282,0.9269290276881506,1.124320731069332,1.532925423675639,1.075015303770669,0.8369135717814687,0.9622952632434423,1.157566513178928,0.9943696046966035,812.3076923076924,799.4139194139194,829.2307692307693,782.0879120879121,793.7728937728938,-0.241089,0.074219,0.946960,19.574280,-9.652557,-39.559784,1,2,1,1,2,55.000000
2023-09-01 17:47:41.926,,,,,,,,,,,,,,,,,,,,,,,,,,,,,,,,,,,,,,/muse/elements/jaw_clench
2023-09-01 17:47:42.758,0.855315972713071,0.4353627630408467,-0.249980659357227,1.11048222371918,0.6582118651000418,0.06357457282504668,-0.02367589779145534,1.222496098057806,0.8759745468634923,0.5883737234123326,0.6050029770359582,1.110337504324282,0.9269290276881506,1.124320731069332,1.532925423675639,1.075015303770669,0.8369135717814687,0.9622952632434423,1.157566513178928,0.9943696046966035,740.989010989011,778.0586080586081,807.8754578754579,764.7619047619048,742.6007326007326,-0.147461,0.148010,0.953674,0.209351,-7.618866,2.557068,1,2,1,1,2,55.000000
2023-09-01 17:47:43.765,1.198016488440884,0.4353627630408467,0.5561125968609344,0.5732989518202271,0.6187295604404194,0.06357457282504668,0.6857731162887351,0.6831551673429656,0.852314954207765,0.5883737234123326,0.9835406003504349,0.5345663188490667,0.735179569619095,1.124320731069332,1.271590011323506,0.6264276976508281,0.4620451854146865,0.9622952632434423,1.161754761494333,0.6870559705860141,796.1904761904763,795.3846153846154,799.8168498168499,790.5494505494506,744.6153846153846,0.023315,0.138977,0.983948,0.500946,-17.316284,-2.901001,1,1,1,1,1,55.000000
2023-09-01 17:47:44.758,1.242396143611426,0.4353627630408467,0.642471371404523,0.5732989518202271,0.9472229779551142,0.06357457282504668,0.6692134056360757,0.6831551673429656,1.047201988134231,0.5883737234123326,0.8707522116646483,0.5345663188490667,1.060945230430131,1.124320731069332,1.195304047161184,0.6264276976508281,0.6067264487622471,0.9622952632434423,1.160880200831975,0.6870559705860141,747.4358974358975,785.7142857142858,775.6410256410256,777.6556776556777,780.8791208791209,0.000366,-0.114197,0.981384,3.349609,2.721558,-1.704712,1,1,1,1,1,55.000000
2023-09-01 17:47:45.758,0.8372847516350098,0.4353627630408467,0.1455498737579284,0.5791654678460219,0.779548843619859,0.06357457282504668,0.2635884926141444,0.557325428488362,1.017070582244312,0.5883737234123326,0.7554981434516452,1.044566555731676,1.027060075288472,1.124320731069332,1.292733857562772,0.870296877879532,0.6740446880443276,0.9622952632434423,1.134815419382987,0.803664761548376,732.5274725274726,788.5347985347986,802.2344322344322,776.0439560439561,646.3003663003664,-0.040833,-0.073608,0.991699,5.914154,-4.373932,-3.895416,1,1,1,1,1,55.000000
2023-09-01 17:47:46.673,,,,,,,,,,,,,,,,,,,,,,,,,,,,,,,,,,,,,,/muse/elements/blink
2023-09-01 17:47:46.758,0.6641411690884726,0.04216735029809446,0.3754069136663003,0.878928785251872,0.4524558864462189,-0.2063327943607968,0.2564542781342859,0.5219608274141996,0.8020973936742427,0.8026291792950262,0.9562504168364916,1.083970521396606,0.6990745242805241,1.112839314194997,1.361376059368307,0.7239999448877762,0.5861535759775356,1.172953329855505,1.213771144706813,0.6233501918566415,701.0989010989011,810.6959706959707,810.2930402930403,751.8681318681319,787.7289377289378,-0.249451,-0.035156,0.929688,13.862000,50.184326,30.602570,1,1,1,1,1,55.000000
2023-09-01 17:47:46.983,,,,,,,,,,,,,,,,,,,,,,,,,,,,,,,,,,,,,,/muse/elements/blink
2023-09-01 17:47:47.686,,,,,,,,,,,,,,,,,,,,,,,,,,,,,,,,,,,,,,/muse/elements/jaw_clench
2023-09-01 17:47:47.757,0.548135529705711,0.4298752208079971,0.1112940357862001,0.5314930817492755,0.5605273485424651,0.04474086171896899,0.2129855635270234,0.6284045034610063,0.7786119493706521,0.8810264565658041,0.7141374615843006,1.04746731779499,0.6609629260214996,1.166785434601625,1.440639161324333,0.7635160771726685,0.5484558418244307,1.161723180862434,1.110009112518345,0.6883924397887722,710.3663003663004,829.6336996336996,780.8791208791209,767.985347985348,596.3369963369963,-0.407776,0.187134,0.857666,14.280701,4.104767,-20.493927,1,1,1,1,1,55.000000
2023-09-01 17:47:48.192,,,,,,,,,,,,,,,,,,,,,,,,,,,,,,,,,,,,,,/muse/elements/blink
2023-09-01 17:47:48.635,,,,,,,,,,,,,,,,,,,,,,,,,,,,,,,,,,,,,,/muse/elements/jaw_clench
2023-09-01 17:47:48.758,0.6100688526644784,0.6174831266926506,-0.01118961650237651,0.5308909303233296,0.6163424724758636,0.2387286647102029,0.2096937204610446,0.6608791272664158,0.7786119493706521,0.8810264565658041,0.6441244885822911,1.04746731779499,0.696835192974677,1.239685616597482,1.434700582425812,0.7831345355855492,0.5341369078205267,1.081141254522602,1.009716199120587,0.6928254008087066,691.8315018315019,725.2747252747253,722.0512820512821,738.1684981684982,650.3296703296703,-0.432312,0.025818,0.855286,-63.141632,-21.353760,33.294220,1,1,1,1,1,55.000000
2023-09-01 17:47:48.839,,,,,,,,,,,,,,,,,,,,,,,,,,,,,,,,,,,,,,/muse/elements/jaw_clench
2023-09-01 17:47:49.758,0.6100688526644784,0.6174831266926506,-0.01118961650237651,0.5308909303233296,0.6163424724758636,0.2387286647102029,0.2096937204610446,0.6608791272664158,0.7786119493706521,0.8810264565658041,0.6441244885822911,1.04746731779499,0.696835192974677,1.239685616597482,1.434700582425812,0.7831345355855492,0.5341369078205267,1.081141254522602,1.009716199120587,0.6928254008087066,703.5164835164835,800.6227106227107,817.5457875457876,767.1794871794872,618.0952380952381,-0.271729,-0.178101,0.924316,6.302948,-7.716064,-11.424561,1,2,1,1,2,55.000000
2023-09-01 17:47:50.132,,,,,,,,,,,,,,,,,,,,,,,,,,,,,,,,,,,,,,/muse/elements/blink
2023-09-01 17:47:50.758,0.6100688526644784,0.1186648569540883,-0.01118961650237651,0.5308909303233296,0.6163424724758636,0.4664053944205623,0.2096937204610446,0.6608791272664158,0.7786119493706521,0.5896416724184769,0.6441244885822911,1.04746731779499,0.696835192974677,1.762485541476743,1.434700582425812,0.7831345355855492,0.5341369078205267,1.399435287457799,1.009716199120587,0.6928254008087066,696.2637362637363,809.4871794871796,810.2930402930403,743.8095238095239,647.9120879120879,-0.398865,-0.027710,0.912109,7.132874,10.325470,-4.508514,1,2,1,1,2,55.000000
2023-09-01 17:47:50.944,,,,,,,,,,,,,,,,,,,,,,,,,,,,,,,,,,,,,,/muse/elements/jaw_clench
2023-09-01 17:47:51.253,,,,,,,,,,,,,,,,,,,,,,,,,,,,,,,,,,,,,,/muse/elements/blink
2023-09-01 17:47:51.538,,,,,,,,,,,,,,,,,,,,,,,,,,,,,,,,,,,,,,/muse/elements/blink
2023-09-01 17:47:51.670,,,,,,,,,,,,,,,,,,,,,,,,,,,,,,,,,,,,,,/muse/elements/jaw_clench
2023-09-01 17:47:51.758,0.6100688526644784,0.1186648569540883,-0.01118961650237651,0.5308909303233296,0.6163424724758636,0.4664053944205623,0.2096937204610446,0.6608791272664158,0.7786119493706521,0.5896416724184769,0.6441244885822911,1.04746731779499,0.696835192974677,1.762485541476743,1.434700582425812,0.7831345355855492,0.5341369078205267,1.399435287457799,1.009716199120587,0.6928254008087066,705.934065934066,830.4395604395604,844.5421245421246,800.2197802197802,657.5824175824176,-0.819702,0.089905,0.540588,0.837402,18.213501,7.424469,1,2,1,1,2,55.000000
2023-09-01 17:47:51.865,,,,,,,,,,,,,,,,,,,,,,,,,,,,,,,,,,,,,,/muse/elements/blink
2023-09-01 17:47:51.953,,,,,,,,,,,,,,,,,,,,,,,,,,,,,,,,,,,,,,/muse/elements/jaw_clench
2023-09-01 17:47:52.758,0.6100688526644784,0.1186648569540883,-0.01118961650237651,0.5308909303233296,0.6163424724758636,0.4664053944205623,0.2096937204610446,0.6608791272664158,0.7786119493706521,0.5896416724184769,0.6441244885822911,1.04746731779499,0.696835192974677,1.762485541476743,1.434700582425812,0.7831345355855492,0.5341369078205267,1.399435287457799,1.009716199120587,0.6928254008087066,832.8571428571429,792.967032967033,758.3150183150184,794.1758241758242,619.7069597069598,-0.899719,0.112427,0.434814,-5.166473,-7.544098,3.768311,1,2,1,1,2,55.000000
2023-09-01 17:47:52.966,,,,,,,,,,,,,,,,,,,,,,,,,,,,,,,,,,,,,,/muse/elements/jaw_clench
2023-09-01 17:47:53.757,0.6100688526644784,0.1186648569540883,-0.01118961650237651,1.087623155553437,0.6163424724758636,0.4664053944205623,0.2096937204610446,0.9571243390345568,0.7786119493706521,0.5896416724184769,0.6441244885822911,0.7426866082548392,0.696835192974677,1.762485541476743,1.434700582425812,0.6649489582388756,0.5341369078205267,1.399435287457799,1.009716199120587,0.6193796835097175,684.1758241758242,821.5750915750916,818.7545787545788,751.8681318681319,603.1868131868132,-0.767700,0.141785,0.616516,-2.676697,-1.151428,1.622467,1,1,1,1,1,55.000000
2023-09-01 17:47:54.726,,,,,,,,,,,,,,,,,,,,,,,,,,,,,,,,,,,,,,/muse/elements/jaw_clench
2023-09-01 17:47:54.758,0.6100688526644784,0.1186648569540883,-0.01118961650237651,1.107500482545623,0.6163424724758636,0.4664053944205623,0.2096937204610446,0.8697451577307357,0.7786119493706521,0.5896416724184769,0.6441244885822911,0.6251953962782427,0.696835192974677,1.762485541476743,1.434700582425812,0.6019852706279953,0.5341369078205267,1.399435287457799,1.009716199120587,0.626669595379042,776.4468864468864,811.9047619047619,773.6263736263736,762.3443223443223,611.6483516483516,-0.759705,0.141846,0.630005,0.381317,-6.250610,-0.351410,1,1,1,1,1,55.000000
2023-09-01 17:47:55.609,,,,,,,,,,,,,,,,,,,,,,,,,,,,,,,,,,,,,,/muse/elements/blink
2023-09-01 17:47:55.698,,,,,,,,,,,,,,,,,,,,,,,,,,,,,,,,,,,,,,/muse/elements/jaw_clench
2023-09-01 17:47:55.757,0.6100688526644784,0.1186648569540883,-0.01118961650237651,0.6383524059987173,0.6163424724758636,0.4664053944205623,0.2096937204610446,0.3053670082475066,0.7786119493706521,0.5896416724184769,0.6441244885822911,0.6645443902490753,0.696835192974677,1.762485541476743,1.434700582425812,0.9193104201906388,0.5341369078205267,1.399435287457799,1.009716199120587,0.7089632608619023,652.3443223443223,734.1391941391942,808.6813186813187,755.8974358974359,622.1245421245421,-0.768982,0.128052,0.625305,2.788849,-2.579498,-1.278534,1,1,1,1,1,55.000000
2023-09-01 17:47:56.314,,,,,,,,,,,,,,,,,,,,,,,,,,,,,,,,,,,,,,/muse/elements/jaw_clench
2023-09-01 17:47:56.535,,,,,,,,,,,,,,,,,,,,,,,,,,,,,,,,,,,,,,/muse/elements/jaw_clench
2023-09-01 17:47:56.757,0.6100688526644784,0.1186648569540883,-0.01118961650237651,0.4525206385389607,0.6163424724758636,0.4664053944205623,0.2096937204610446,0.2040219651874238,0.7786119493706521,0.5896416724184769,0.6441244885822911,0.5096228612688637,0.696835192974677,1.762485541476743,1.434700582425812,0.829606298079972,0.5341369078205267,1.399435287457799,1.009716199120587,0.7076500073050401,753.8827838827839,787.7289377289378,827.2161172161173,767.985347985348,643.4798534798535,-0.717651,0.118774,0.683044,2.295380,-13.346100,-1.996307,1,1,1,1,1,55.000000
2023-09-01 17:47:57.152,,,,,,,,,,,,,,,,,,,,,,,,,,,,,,,,,,,,,,/muse/elements/jaw_clench
2023-09-01 17:47:57.439,,,,,,,,,,,,,,,,,,,,,,,,,,,,,,,,,,,,,,/muse/elements/jaw_clench
2023-09-01 17:47:57.751,,,,,,,,,,,,,,,,,,,,,,,,,,,,,,,,,,,,,,/muse/elements/jaw_clench
2023-09-01 17:47:57.764,0.3685364902675573,0.1186648569540883,-0.01118961650237651,0.3759924942442036,0.2568720807951998,0.4664053944205623,0.2096937204610446,0.6371175255817425,0.660468801509725,0.5896416724184769,0.6441244885822911,0.7646654340730636,0.985817753571935,1.762485541476743,1.434700582425812,0.9345997327399704,0.6196427660989913,1.399435287457799,1.009716199120587,0.8209212547039452,643.8827838827839,758.7179487179487,786.9230769230769,750.6593406593407,697.8754578754579,-0.775391,0.114929,0.683289,1.622467,-13.615265,-3.215027,1,1,1,1,1,55.000000
2023-09-01 17:47:57.948,,,,,,,,,,,,,,,,,,,,,,,,,,,,,,,,,,,,,,/muse/elements/jaw_clench
2023-09-01 17:47:58.147,,,,,,,,,,,,,,,,,,,,,,,,,,,,,,,,,,,,,,/muse/elements/jaw_clench
2023-09-01 17:47:58.758,0.5325250766830467,0.1186648569540883,-0.01118961650237651,0.7475089832612986,0.3474285233149622,0.4664053944205623,0.2096937204610446,0.8133562656741168,0.4577383342927138,0.5896416724184769,0.6441244885822911,0.9368311765000772,0.9698825315916361,1.762485541476743,1.434700582425812,0.9186897511085136,0.6973049086781085,1.399435287457799,1.009716199120587,0.892871980121979,881.2087912087912,773.6263736263736,732.5274725274726,751.4652014652015,786.9230769230769,-0.532166,0.045288,0.868652,-4.830017,11.663818,-0.904694,1,1,1,1,1,50.000000
2023-09-01 17:47:58.983,,,,,,,,,,,,,,,,,,,,,,,,,,,,,,,,,,,,,,/muse/elements/blink
2023-09-01 17:47:59.114,,,,,,,,,,,,,,,,,,,,,,,,,,,,,,,,,,,,,,/muse/elements/jaw_clench
