TimeStamp,Delta_TP9,Delta_AF7,Delta_AF8,Delta_TP10,Theta_TP9,Theta_AF7,Theta_AF8,Theta_TP10,Alpha_TP9,Alpha_AF7,Alpha_AF8,Alpha_TP10,Beta_TP9,Beta_AF7,Beta_AF8,Beta_TP10,Gamma_TP9,Gamma_AF7,Gamma_AF8,Gamma_TP10,RAW_TP9,RAW_AF7,RAW_AF8,RAW_TP10,AUX_RIGHT,Accelerometer_X,Accelerometer_Y,Accelerometer_Z,Gyro_X,Gyro_Y,Gyro_Z,HeadBandOn,HSI_TP9,HSI_AF7,HSI_AF8,HSI_TP10,Battery,Elements
2023-09-13 16:40:21.226,,,,,,,,,,,,,,,,,,,,,,,,,,,,,,,,,,,,,,/muse/event/connected Muse-D424
2023-09-13 16:40:21.304,,,,,,,,,,,,,,,,,,,,,,,,,,,,,,,,,,,,,,/muse/elements/jaw_clench
2023-09-13 16:40:21.306,,,,,,,,,,,,,,,,,,,,,,,,,,,,,,,,,,,,,,/muse/elements/blink
2023-09-13 16:40:21.523,,,,,,,,,,,,,,,,,,,,,,,,,,,,,,,,,,,,,,/muse/elements/blink
2023-09-13 16:40:22.231,0.7824926634077252,1.345026415890299,0.7919430666448543,0.4777417908170791,0.1039960872948164,1.313643749336408,1.102225848582996,0.4879786785361668,0.458678167613734,1.082416649005983,0.4966760416430834,0.5697078636044696,0.3931498687332453,0.5010194247000135,0.5507603022363787,0.4834938331539313,0.0777904769940849,-0.05768491060140118,0.4343699520643153,0.06665504387097233,826.4102564102565,712.3809523809524,533.0769230769231,855.8241758241759,734.5421245421246,-0.492981,-0.026062,0.848145,1.495361,-1.570129,-3.424377,1,1,1,4,1,55.000000
2023-09-13 16:40:23.233,0.7824926634077252,1.345026415890299,0.7919430666448543,0.4777417908170791,0.1039960872948164,1.313643749336408,1.102225848582996,0.4879786785361668,0.458678167613734,1.082416649005983,0.4966760416430834,0.5697078636044696,0.3931498687332453,0.5010194247000135,0.5507603022363787,0.4834938331539313,0.0777904769940849,-0.05768491060140118,0.4343699520643153,0.06665504387097233,792.967032967033,719.2307692307693,803.8461538461539,788.5347985347986,727.2893772893773,-0.447083,-0.015808,0.879150,0.792542,-3.544006,-2.108459,1,1,1,2,1,55.000000
2023-09-13 16:40:24.227,1.250192532856957,1.048200487528136,0.7919430666448543,0.6467820219437949,0.5619373744203667,0.9514749317842138,1.102225848582996,0.5736495004388503,0.7282849846931427,0.5164574087238377,0.4966760416430834,0.5059915614157939,0.6350541387387338,0.6825497748974638,0.5507603022363787,0.6542137006461282,0.1337099418296807,0.0422255609815711,0.4343699520643153,0.219689564881093,884.8351648351648,683.3699633699634,216.3736263736264,849.7802197802198,720.0366300366301,-0.101624,-0.022095,0.906555,6.078644,-95.770416,-1.719666,1,1,1,1,1,55.000000
2023-09-13 16:40:25.227,1.286365990517025,1.048200487528136,0.7919430666448543,0.6467820219437949,0.5342098173780142,0.9514749317842138,1.102225848582996,0.5736495004388503,0.6309214335511641,0.5164574087238377,0.4966760416430834,0.5059915614157939,0.653684477916483,0.6825497748974638,0.5507603022363787,0.6542137006461282,0.006454014103176047,0.0422255609815711,0.4343699520643153,0.219689564881093,647.1062271062272,751.4652014652015,1386.080586080586,660.4029304029305,761.1355311355312,-0.280334,-0.108093,0.942749,-1.009369,60.285492,-1.203766,1,1,1,4,1,55.000000
2023-09-13 16:40:25.322,,,,,,,,,,,,,,,,,,,,,,,,,,,,,,,,,,,,,,/muse/elements/jaw_clench
2023-09-13 16:40:25.503,,,,,,,,,,,,,,,,,,,,,,,,,,,,,,,,,,,,,,/muse/elements/jaw_clench
2023-09-13 16:40:26.106,,,,,,,,,,,,,,,,,,,,,,,,,,,,,,,,,,,,,,/muse/elements/jaw_clench
2023-09-13 16:40:26.228,1.286365990517025,1.048200487528136,0.7919430666448543,0.6467820219437949,0.5342098173780142,0.9514749317842138,1.102225848582996,0.5736495004388503,0.6309214335511641,0.5164574087238377,0.4966760416430834,0.5059915614157939,0.653684477916483,0.6825497748974638,0.5507603022363787,0.6542137006461282,0.006454014103176047,0.0422255609815711,0.4343699520643153,0.219689564881093,826.4102564102565,865.0915750915751,675.7142857142858,787.3260073260074,744.6153846153846,-0.553955,-0.168640,0.780762,6.646881,3.386993,-6.250610,1,1,1,4,1,55.000000
2023-09-13 16:40:27.227,1.286365990517025,1.048200487528136,0.7919430666448543,0.6467820219437949,0.5342098173780142,0.9514749317842138,1.102225848582996,0.5736495004388503,0.6309214335511641,0.5164574087238377,0.4966760416430834,0.5059915614157939,0.653684477916483,0.6825497748974638,0.5507603022363787,0.6542137006461282,0.006454014103176047,0.0422255609815711,0.4343699520643153,0.219689564881093,855.8241758241759,704.3223443223443,838.0952380952381,844.9450549450549,681.7582417582418,-0.529846,-0.149841,0.824463,13.637695,-0.074768,-7.977753,1,2,4,2,2,55.000000
2023-09-13 16:40:28.138,,,,,,,,,,,,,,,,,,,,,,,,,,,,,,,,,,,,,,/muse/elements/blink
2023-09-13 16:40:28.227,1.286365990517025,1.048200487528136,0.7919430666448543,0.6467820219437949,0.5342098173780142,0.9514749317842138,1.102225848582996,0.5736495004388503,0.6309214335511641,0.5164574087238377,0.4966760416430834,0.5059915614157939,0.653684477916483,0.6825497748974638,0.5507603022363787,0.6542137006461282,0.006454014103176047,0.0422255609815711,0.4343699520643153,0.219689564881093,902.5641025641025,860.6593406593407,1625.018315018315,916.6666666666667,757.1062271062272,0.285522,-0.001038,0.956116,6.616974,-29.069824,-15.888214,1,2,1,2,2,55.000000
2023-09-13 16:40:29.226,1.286365990517025,1.048200487528136,0.7919430666448543,0.6467820219437949,0.5342098173780142,0.9514749317842138,1.102225848582996,0.5736495004388503,0.6309214335511641,0.5164574087238377,0.4966760416430834,0.5059915614157939,0.653684477916483,0.6825497748974638,0.5507603022363787,0.6542137006461282,0.006454014103176047,0.0422255609815711,0.4343699520643153,0.219689564881093,804.6520146520147,800.6227106227107,1625.018315018315,909.0109890109891,1004.102564102564,0.093811,-0.302307,0.932007,31.798859,-55.657349,103.471527,1,2,1,4,2,55.000000
2023-09-13 16:40:29.387,,,,,,,,,,,,,,,,,,,,,,,,,,,,,,,,,,,,,,/muse/elements/blink
2023-09-13 16:40:30.226,1.286365990517025,1.048200487528136,0.7919430666448543,0.6467820219437949,0.5342098173780142,0.9514749317842138,1.102225848582996,0.5736495004388503,0.6309214335511641,0.5164574087238377,0.4966760416430834,0.5059915614157939,0.653684477916483,0.6825497748974638,0.5507603022363787,0.6542137006461282,0.006454014103176047,0.0422255609815711,0.4343699520643153,0.219689564881093,811.9047619047619,665.6410256410256,704.3223443223443,867.1062271062272,729.7069597069598,0.232544,-0.225098,0.940308,5.405731,-1.420593,-8.807678,1,2,1,2,2,55.000000
2023-09-13 16:40:31.226,0.6665049103713933,1.048200487528136,0.7919430666448543,0.6467820219437949,0.4825936560192274,0.9514749317842138,1.102225848582996,0.5736495004388503,0.8767246337955159,0.5164574087238377,0.4966760416430834,0.5059915614157939,1.214690935695767,0.6825497748974638,0.5507603022363787,0.6542137006461282,0.667307570936881,0.0422255609815711,0.4343699520643153,0.219689564881093,835.2747252747253,1293.809523809524,487.948717948718,673.2967032967033,707.948717948718,0.014526,0.328125,0.982300,59.298553,59.463043,-228.917389,1,1,1,4,1,55.000000
2023-09-13 16:40:31.274,,,,,,,,,,,,,,,,,,,,,,,,,,,,,,,,,,,,,,/muse/elements/blink
2023-09-13 16:40:31.274,,,,,,,,,,,,,,,,,,,,,,,,,,,,,,,,,,,,,,/muse/elements/jaw_clench
2023-09-13 16:40:32.226,0.668540360566902,1.048200487528136,0.7919430666448543,0.6467820219437949,0.3816713257366901,0.9514749317842138,1.102225848582996,0.5736495004388503,0.7854437599525297,0.5164574087238377,0.4966760416430834,0.5059915614157939,1.098412949172869,0.6825497748974638,0.5507603022363787,0.6542137006461282,0.6071819540770503,0.0422255609815711,0.4343699520643153,0.219689564881093,844.5421245421246,742.6007326007326,393.6630036630037,783.2967032967033,773.6263736263736,-0.388000,-0.061279,0.921448,-2.041168,-14.744263,-6.893616,1,1,1,4,1,55.000000
2023-09-13 16:40:32.499,,,,,,,,,,,,,,,,,,,,,,,,,,,,,,,,,,,,,,/muse/elements/jaw_clench
2023-09-13 16:40:33.225,0.668540360566902,1.048200487528136,0.7919430666448543,0.6467820219437949,0.3816713257366901,0.9514749317842138,1.102225848582996,0.5736495004388503,0.7854437599525297,0.5164574087238377,0.4966760416430834,0.5059915614157939,1.098412949172869,0.6825497748974638,0.5507603022363787,0.6542137006461282,0.6071819540770503,0.0422255609815711,0.4343699520643153,0.219689564881093,751.4652014652015,635.4212454212454,325.5677655677656,707.1428571428571,675.7142857142858,-0.167053,0.160339,0.968262,-19.686432,-76.951294,197.193298,1,1,1,2,1,55.000000
2023-09-13 16:40:33.609,,,,,,,,,,,,,,,,,,,,,,,,,,,,,,,,,,,,,,/muse/elements/jaw_clench
2023-09-13 16:40:34.228,0.668540360566902,1.048200487528136,0.7919430666448543,0.6467820219437949,0.3816713257366901,0.9514749317842138,1.102225848582996,0.5736495004388503,0.7854437599525297,0.5164574087238377,0.4966760416430834,0.5059915614157939,1.098412949172869,0.6825497748974638,0.5507603022363787,0.6542137006461282,0.6071819540770503,0.0422255609815711,0.4343699520643153,0.219689564881093,803.8461538461539,708.3516483516484,298.974358974359,832.0512820512821,668.0586080586081,0.203674,-0.000122,0.963135,1.368256,2.968292,-16.097565,1,2,1,4,2,55.000000
2023-09-13 16:40:34.855,,,,,,,,,,,,,,,,,,,,,,,,,,,,,,,,,,,,,,/muse/elements/blink
2023-09-13 16:40:35.102,,,,,,,,,,,,,,,,,,,,,,,,,,,,,,,,,,,,,,/muse/elements/blink
2023-09-13 16:40:35.226,0.668540360566902,1.048200487528136,0.7919430666448543,0.6467820219437949,0.3816713257366901,0.9514749317842138,1.102225848582996,0.5736495004388503,0.7854437599525297,0.5164574087238377,0.4966760416430834,0.5059915614157939,1.098412949172869,0.6825497748974638,0.5507603022363787,0.6542137006461282,0.6071819540770503,0.0422255609815711,0.4343699520643153,0.219689564881093,709.9633699633699,1019.81684981685,225.6410256410256,695.4578754578755,775.6410256410256,-0.327942,0.062195,0.887939,-22.355652,19.813538,-0.770111,1,2,1,4,2,55.000000
2023-09-13 16:40:35.262,,,,,,,,,,,,,,,,,,,,,,,,,,,,,,,,,,,,,,/muse/elements/blink
2023-09-13 16:40:36.235,0.668540360566902,1.048200487528136,0.7919430666448543,0.6467820219437949,0.3816713257366901,0.9514749317842138,1.102225848582996,0.5736495004388503,0.7854437599525297,0.5164574087238377,0.4966760416430834,0.5059915614157939,1.098412949172869,0.6825497748974638,0.5507603022363787,0.6542137006461282,0.6071819540770503,0.0422255609815711,0.4343699520643153,0.219689564881093,762.7472527472528,751.0622710622711,920.6959706959707,780.4761904761905,766.3736263736264,-0.405029,0.003723,0.894470,2.998199,-18.639679,-4.246826,1,2,1,2,2,55.000000
2023-09-13 16:40:37.226,0.668540360566902,1.048200487528136,0.7919430666448543,0.6467820219437949,0.3816713257366901,0.9514749317842138,1.102225848582996,0.5736495004388503,0.7854437599525297,0.5164574087238377,0.4966760416430834,0.5059915614157939,1.098412949172869,0.6825497748974638,0.5507603022363787,0.6542137006461282,0.6071819540770503,0.0422255609815711,0.4343699520643153,0.219689564881093,832.4542124542124,716.4102564102565,0,845.7509157509157,981.941391941392,-0.094116,0.027771,0.995972,-3.035583,-32.673645,4.269257,1,2,1,2,2,55.000000
2023-09-13 16:40:38.229,0.668540360566902,1.048200487528136,0.7919430666448543,0.6467820219437949,0.3816713257366901,0.9514749317842138,1.102225848582996,0.5736495004388503,0.7854437599525297,0.5164574087238377,0.4966760416430834,0.5059915614157939,1.098412949172869,0.6825497748974638,0.5507603022363787,0.6542137006461282,0.6071819540770503,0.0422255609815711,0.4343699520643153,0.219689564881093,783.6996336996338,762.7472527472528,1625.421245421245,753.8827838827839,713.1868131868132,0.227539,-0.046570,0.931396,0.844879,-10.632019,-12.254486,1,2,1,4,2,55.000000
2023-09-13 16:40:38.821,,,,,,,,,,,,,,,,,,,,,,,,,,,,,,,,,,,,,,/muse/elements/blink
2023-09-13 16:40:39.233,1.348414521340817,1.048200487528136,0.7919430666448543,0.6467820219437949,0.9651493778012168,0.9514749317842138,1.102225848582996,0.5736495004388503,0.8885931367098368,0.5164574087238377,0.4966760416430834,0.5059915614157939,0.8848715489828201,0.6825497748974638,0.5507603022363787,0.6542137006461282,0.4746811587546576,0.0422255609815711,0.4343699520643153,0.219689564881093,790.1465201465202,738.5714285714286,749.4505494505495,795.3846153846154,724.0659340659341,0.181641,0.002319,0.962219,3.304749,-8.777771,4.089813,1,1,1,4,1,55.000000
2023-09-13 16:40:40.226,1.348414521340817,1.048200487528136,0.7919430666448543,0.6467820219437949,0.9651493778012168,0.9514749317842138,1.102225848582996,0.5736495004388503,0.8885931367098368,0.5164574087238377,0.4966760416430834,0.5059915614157939,0.8848715489828201,0.6825497748974638,0.5507603022363787,0.6542137006461282,0.4746811587546576,0.0422255609815711,0.4343699520643153,0.219689564881093,792.1611721611722,742.1978021978023,1625.018315018315,804.6520146520147,731.7216117216118,0.151733,-0.035095,0.963684,0.291595,-15.805969,-3.902893,1,1,1,4,1,50.000000
2023-09-13 16:40:41.228,1.348414521340817,1.048200487528136,0.7919430666448543,0.6467820219437949,0.9651493778012168,0.9514749317842138,1.102225848582996,0.5736495004388503,0.8885931367098368,0.5164574087238377,0.4966760416430834,0.5059915614157939,0.8848715489828201,0.6825497748974638,0.5507603022363787,0.6542137006461282,0.4746811587546576,0.0422255609815711,0.4343699520643153,0.219689564881093,807.0695970695971,770,827.2161172161173,807.4725274725275,815.5311355311355,0.218506,0.009155,0.956848,2.990723,-9.480591,-1.839294,1,1,1,4,1,50.000000
2023-09-13 16:40:42.226,1.348414521340817,1.048200487528136,0.7919430666448543,0.6467820219437949,0.9651493778012168,0.9514749317842138,1.102225848582996,0.5736495004388503,0.8885931367098368,0.5164574087238377,0.4966760416430834,0.5059915614157939,0.8848715489828201,0.6825497748974638,0.5507603022363787,0.6542137006461282,0.4746811587546576,0.0422255609815711,0.4343699520643153,0.219689564881093,781.6849816849817,759.5238095238095,520.989010989011,790.952380952381,752.6739926739926,0.112122,0.071960,0.976440,-2.459869,-1.450500,-0.231781,1,2,1,4,2,50.000000
2023-09-13 16:40:43.226,1.348414521340817,1.048200487528136,0.7919430666448543,0.6467820219437949,0.9651493778012168,0.9514749317842138,1.102225848582996,0.5736495004388503,0.8885931367098368,0.5164574087238377,0.4966760416430834,0.5059915614157939,0.8848715489828201,0.6825497748974638,0.5507603022363787,0.6542137006461282,0.4746811587546576,0.0422255609815711,0.4343699520643153,0.219689564881093,769.5970695970697,778.0586080586081,799.8168498168499,783.2967032967033,844.1391941391942,0.166077,0.058594,0.974060,0.605621,0.665436,-2.743988,1,2,1,1,2,50.000000
2023-09-13 16:40:43.899,,,,,,,,,,,,,,,,,,,,,,,,,,,,,,,,,,,,,,/muse/elements/blink
2023-09-13 16:40:44.228,1.348414521340817,1.048200487528136,0.7919430666448543,0.6467820219437949,0.9651493778012168,0.9514749317842138,1.102225848582996,0.5736495004388503,0.8885931367098368,0.5164574087238377,0.4966760416430834,0.5059915614157939,0.8848715489828201,0.6825497748974638,0.5507603022363787,0.6542137006461282,0.4746811587546576,0.0422255609815711,0.4343699520643153,0.219689564881093,832.4542124542124,877.985347985348,0,759.1208791208792,820.3663003663004,-0.519958,0.171509,0.844788,12.710571,20.493927,-26.669769,1,2,1,4,2,50.000000
2023-09-13 16:40:45.226,1.348414521340817,1.048200487528136,0.7919430666448543,0.6467820219437949,0.9651493778012168,0.9514749317842138,1.102225848582996,0.5736495004388503,0.8885931367098368,0.5164574087238377,0.4966760416430834,0.5059915614157939,0.8848715489828201,0.6825497748974638,0.5507603022363787,0.6542137006461282,0.4746811587546576,0.0422255609815711,0.4343699520643153,0.219689564881093,789.3406593406594,790.5494505494506,746.2271062271062,786.9230769230769,733.3333333333334,-0.504639,0.089417,0.857849,0.725250,-1.054230,-4.665527,1,2,1,1,2,50.000000
2023-09-13 16:40:46.223,,,,,,,,,,,,,,,,,,,,,,,,,,,,,,,,,,,,,,/muse/elements/blink
2023-09-13 16:40:46.231,1.485250925203535,1.048200487528136,0.7919430666448543,0.6467820219437949,1.143507806278627,0.9514749317842138,1.102225848582996,0.5736495004388503,1.05006779013019,0.5164574087238377,0.4966760416430834,0.5059915614157939,0.7594551647305187,0.6825497748974638,0.5507603022363787,0.6542137006461282,0.1436898965937937,0.0422255609815711,0.4343699520643153,0.219689564881093,871.5384615384615,585.4578754578755,1625.018315018315,856.2271062271062,746.6300366300367,0.184326,0.046143,0.946411,4.710388,-40.098114,-21.892090,1,1,1,2,1,50.000000
2023-09-13 16:40:47.226,1.374714696927902,1.048200487528136,0.7919430666448543,0.6467820219437949,1.036922446578318,0.9514749317842138,1.102225848582996,0.5736495004388503,0.9183077142094123,0.5164574087238377,0.4966760416430834,0.5059915614157939,0.7103649461057989,0.6825497748974638,0.5507603022363787,0.6542137006461282,0.281613434598144,0.0422255609815711,0.4343699520643153,0.219689564881093,813.5164835164835,764.3589743589744,1156.410256410256,809.0842490842491,747.8388278388279,0.170715,0.005310,0.942505,4.314117,-6.003876,-4.994507,1,1,1,4,1,50.000000
2023-09-13 16:40:48.230,1.250581287781553,1.048200487528136,0.7919430666448543,0.6467820219437949,0.8081606882608297,0.9514749317842138,1.102225848582996,0.5736495004388503,0.831022766934284,0.5164574087238377,0.4966760416430834,0.5059915614157939,0.6147267952243726,0.6825497748974638,0.5507603022363787,0.6542137006461282,0.1941859144288243,0.0422255609815711,0.4343699520643153,0.219689564881093,736.959706959707,591.9047619047619,890.4761904761905,779.2673992673992,782.4908424908425,0.203308,-0.017578,0.964844,1.353302,0.859833,-2.968292,1,1,1,2,1,50.000000
2023-09-13 16:40:48.487,,,,,,,,,,,,,,,,,,,,,,,,,,,,,,,,,,,,,,/muse/elements/blink
2023-09-13 16:40:49.233,1.200864592272309,1.048200487528136,0.7919430666448543,0.6467820219437949,0.7195721509384054,0.9514749317842138,1.102225848582996,0.5736495004388503,0.831022766934284,0.5164574087238377,0.4966760416430834,0.5059915614157939,0.628490276781198,0.6825497748974638,0.5507603022363787,0.6542137006461282,0.1743735091129091,0.0422255609815711,0.4343699520643153,0.219689564881093,763.1501831501831,825.6043956043957,812.3076923076924,754.6886446886447,848.1684981684982,-0.070190,0.029053,0.983826,5.757141,28.636169,7.678680,1,1,1,4,1,50.000000
2023-09-13 16:40:50.225,1.200864592272309,1.048200487528136,0.7919430666448543,0.6467820219437949,0.7195721509384054,0.9514749317842138,1.102225848582996,0.5736495004388503,0.831022766934284,0.5164574087238377,0.4966760416430834,0.5059915614157939,0.628490276781198,0.6825497748974638,0.5507603022363787,0.6542137006461282,0.1743735091129091,0.0422255609815711,0.4343699520643153,0.219689564881093,798.6080586080586,787.3260073260074,707.1428571428571,808.6813186813187,741.3919413919414,-0.113831,0.059998,0.965820,1.143951,-7.364655,2.108459,1,1,1,2,1,50.000000
2023-09-13 16:40:51.232,0.7824165218204854,0.4192707794740406,0.7919430666448543,0.9501863971636817,0.4877912882304324,-0.03422848528589652,1.102225848582996,0.5920395606968835,1.250179067944161,0.002403755913848984,0.4966760416430834,1.039124957335165,0.83389622573623,0.2281441652884482,0.5507603022363787,0.8963281095623905,0.6398714152769023,-0.1739420055414245,0.4343699520643153,0.575066258768851,826.4102564102565,755.0915750915751,806.2637362637363,765.5677655677656,728.901098901099,-0.118286,0.051941,0.978516,0.590668,-0.000000,-4.284210,1,1,1,1,1,55.000000
2023-09-13 16:40:52.225,0.865280145937788,0.3939180383147005,0.7919430666448543,0.9373994123737224,0.6251462391034304,0.1575265273707782,1.102225848582996,0.572906585083978,0.9526845797227627,0.3211924709183715,0.4966760416430834,0.5770479330798958,0.8717214900343577,0.1967187124141677,0.5507603022363787,0.858754080765775,0.6742896701353829,-0.06279947148682904,0.4343699520643153,0.5074700067076138,780.4761904761905,810.2930402930403,1375.201465201465,749.047619047619,751.8681318681319,-0.043701,0.016113,0.951416,-3.618774,-2.945862,-4.448700,1,1,1,1,1,55.000000
2023-09-13 16:40:52.773,,,,,,,,,,,,,,,,,,,,,,,,,,,,,,,,,,,,,,/muse/elements/blink
2023-09-13 16:40:53.234,1.21310721359448,0.4419014432738815,0.7919430666448543,0.9373994123737224,0.7921340355814426,0.1715291904949756,1.102225848582996,0.572906585083978,0.8903214339815975,0.2768952778007707,0.4966760416430834,0.5770479330798958,0.9126118388664536,0.229304672271891,0.5507603022363787,0.858754080765775,0.6574637230451374,0.1069098596450364,0.4343699520643153,0.5074700067076138,732.1245421245421,783.2967032967033,800.2197802197802,724.8717948717949,698.6813186813187,0.259583,0.035522,0.953613,3.005676,-0.919647,3.798218,1,1,1,4,1,55.000000
2023-09-13 16:40:53.961,,,,,,,,,,,,,,,,,,,,,,,,,,,,,,,,,,,,,,/muse/elements/blink
2023-09-13 16:40:54.225,1.176306514486434,0.4419014432738815,0.7919430666448543,0.9373994123737224,0.7413447052067863,0.1715291904949756,1.102225848582996,0.572906585083978,0.8277942312595457,0.2768952778007707,0.4966760416430834,0.5770479330798958,0.8285451356589728,0.229304672271891,0.5507603022363787,0.858754080765775,0.5549951971962539,0.1069098596450364,0.4343699520643153,0.5074700067076138,858.6446886446887,527.032967032967,23.77289377289377,805.0549450549451,827.2161172161173,-0.596008,0.093079,0.777893,-3.805695,-35.163422,9.076843,1,1,1,4,1,55.000000
2023-09-13 16:40:55.225,1.176306514486434,0.4419014432738815,0.7919430666448543,0.9373994123737224,0.7413447052067863,0.1715291904949756,1.102225848582996,0.572906585083978,0.8277942312595457,0.2768952778007707,0.4966760416430834,0.5770479330798958,0.8285451356589728,0.229304672271891,0.5507603022363787,0.858754080765775,0.5549951971962539,0.1069098596450364,0.4343699520643153,0.5074700067076138,802.2344322344322,723.6630036630037,751.4652014652015,810.6959706959707,753.4798534798535,-0.501099,0.084595,0.838989,-5.585175,0.239258,20.314484,1,1,1,2,1,55.000000
2023-09-13 16:40:56.225,1.056240531890263,0.4419014432738815,0.7919430666448543,0.9373994123737224,1.09217810315279,0.1715291904949756,1.102225848582996,0.572906585083978,0.9883241280763385,0.2768952778007707,0.4966760416430834,0.5770479330798958,0.5865384320176754,0.229304672271891,0.5507603022363787,0.858754080765775,0.4805931280429808,0.1069098596450364,0.4343699520643153,0.5074700067076138,799.0109890109891,735.7509157509157,721.6483516483516,808.2783882783883,753.0769230769231,-0.528076,0.041504,0.836365,0.276642,-9.570312,-9.046936,1,1,1,1,1,55.000000
2023-09-13 16:40:57.226,0.9890863302742292,0.4419014432738815,0.7919430666448543,0.9373994123737224,0.8013671033573759,0.1715291904949756,1.102225848582996,0.572906585083978,0.9111369960653554,0.2768952778007707,0.4966760416430834,0.5770479330798958,0.3071400703070202,0.229304672271891,0.5507603022363787,0.858754080765775,0.3512495360135866,0.1069098596450364,0.4343699520643153,0.5074700067076138,814.7252747252747,728.4981684981685,202.2710622710623,825.2014652014652,855.4212454212454,-0.135742,-0.029724,0.979614,2.729034,-0.912170,-7.088013,1,1,1,2,1,55.000000
2023-09-13 16:40:58.226,0.9473295637131985,0.4419014432738815,0.7919430666448543,1.588051906841801,0.3698968666463275,0.1715291904949756,1.102225848582996,1.709978906858851,0.5275116207488636,0.2768952778007707,0.4966760416430834,1.357073024118522,0.3282214003328849,0.229304672271891,0.5507603022363787,0.9704369963236524,0.223148905155421,0.1069098596450364,0.4343699520643153,0.4693265150406296,795.7875457875458,732.1245421245421,747.032967032967,813.1135531135532,725.6776556776557,-0.220764,-0.118530,0.945251,-0.044861,-12.635803,2.362671,1,1,1,1,1,55.000000
2023-09-13 16:40:59.226,0.9473295637131985,0.4419014432738815,0.7919430666448543,1.326501990396681,0.3698968666463275,0.1715291904949756,1.102225848582996,1.380754480015992,0.5275116207488636,0.2768952778007707,0.4966760416430834,1.357073024118522,0.3282214003328849,0.229304672271891,0.5507603022363787,0.9313128917288581,0.223148905155421,0.1069098596450364,0.4343699520643153,0.6593866524083963,804.6520146520147,780.4761904761905,802.6373626373627,751.4652014652015,751.8681318681319,-0.120605,0.084961,0.962891,3.626251,-6.871185,7.536621,1,1,1,2,1,55.000000
2023-09-13 16:41:00.226,0.9473295637131985,0.4419014432738815,0.7919430666448543,0.9929159056991079,0.3698968666463275,0.1715291904949756,1.102225848582996,0.6298680800885701,0.5275116207488636,0.2768952778007707,0.4966760416430834,0.6978408758781709,0.3282214003328849,0.229304672271891,0.5507603022363787,0.8960466274076863,0.223148905155421,0.1069098596450364,0.4343699520643153,0.6981620285326734,897.3260073260074,788.1318681318681,501.6483516483516,921.5018315018315,932.3809523809524,-0.126892,0.042725,0.952698,2.325287,-4.007568,-3.087921,1,1,1,2,1,55.000000
2023-09-13 16:41:00.253,,,,,,,,,,,,,,,,,,,,,,,,,,,,,,,,,,,,,,/muse/elements/blink
2023-09-13 16:41:01.233,0.9473295637131985,0.4419014432738815,0.7919430666448543,0.9929159056991079,0.3698968666463275,0.1715291904949756,1.102225848582996,0.6298680800885701,0.5275116207488636,0.2768952778007707,0.4966760416430834,0.6978408758781709,0.3282214003328849,0.229304672271891,0.5507603022363787,0.8960466274076863,0.223148905155421,0.1069098596450364,0.4343699520643153,0.6981620285326734,823.992673992674,757.1062271062272,519.7802197802198,839.7069597069598,655.9706959706959,-0.080017,-0.088135,0.988586,-4.710388,-1.644897,-2.773895,1,1,1,2,1,55.000000
2023-09-13 16:41:02.225,0.9473295637131985,0.4419014432738815,0.7919430666448543,0.9929159056991079,0.3698968666463275,0.1715291904949756,1.102225848582996,0.6298680800885701,0.5275116207488636,0.2768952778007707,0.4966760416430834,0.6978408758781709,0.3282214003328849,0.229304672271891,0.5507603022363787,0.8960466274076863,0.223148905155421,0.1069098596450364,0.4343699520643153,0.6981620285326734,760.7326007326008,758.7179487179487,788.1318681318681,759.5238095238095,728.0952380952381,-0.143188,-0.072510,0.970764,-2.489777,-1.420593,0.157013,1,2,1,1,2,55.000000
2023-09-13 16:41:03.226,0.6023687363077784,0.9707028947651252,0.7919430666448543,0.9929159056991079,0.3567128600887229,-0.2602830219167251,1.102225848582996,0.6298680800885701,0.7854831737892036,0.0468292198821779,0.4966760416430834,0.6978408758781709,0.6276279457418169,0.1201601810929429,0.5507603022363787,0.8960466274076863,0.05407647108200994,-0.1222199133429845,0.4343699520643153,0.6981620285326734,773.6263736263736,746.6300366300367,827.2161172161173,774.0293040293041,732.5274725274726,-0.119019,-0.049927,0.973511,0.964508,-1.390686,0.381317,1,1,1,1,1,55.000000
2023-09-13 16:41:04.187,,,,,,,,,,,,,,,,,,,,,,,,,,,,,,,,,,,,,,/muse/elements/jaw_clench
2023-09-13 16:41:04.226,0.6368996566936285,0.3869569832373921,0.7919430666448543,0.6759488617546625,0.4649489447078514,-0.3608147151733084,1.102225848582996,0.630246055435242,0.9881809581520592,0.04747946723877507,0.4966760416430834,0.7454825030466843,0.5686484382848818,0.01396714841123446,0.5507603022363787,0.7993499716661416,0.1196396295406375,-0.2693620803109076,0.4343699520643153,0.3223042890974274,458.5347985347985,1371.575091575092,1625.421245421245,307.8388278388279,696.2637362637363,-0.121338,-0.007812,0.944275,-2.953339,89.474945,56.412506,1,1,1,1,1,55.000000
2023-09-13 16:41:04.428,,,,,,,,,,,,,,,,,,,,,,,,,,,,,,,,,,,,,,/muse/elements/blink
2023-09-13 16:41:05.226,0.4453791522975823,0.09299562960594836,0.7919430666448543,0.7673386317831539,0.3285850422706941,-0.3509287087331324,1.102225848582996,0.7996159731999442,0.834216713834542,-0.143715959674721,0.4966760416430834,0.7329515318685262,0.4780675750269588,-0.1542488899477135,0.5507603022363787,0.8669355682804887,0.05283883304480674,-0.3489335893787308,0.4343699520643153,0.3802378512123746,779.6703296703297,793.7728937728938,1078.644688644689,792.967032967033,780.4761904761905,-0.330505,0.029724,0.926331,1.757050,-7.656250,-6.594543,1,1,1,2,1,55.000000
2023-09-13 16:41:05.314,,,,,,,,,,,,,,,,,,,,,,,,,,,,,,,,,,,,,,/muse/elements/jaw_clench
2023-09-13 16:41:06.225,0.4453791522975823,0.09299562960594836,0.7919430666448543,0.7673386317831539,0.3285850422706941,-0.3509287087331324,1.102225848582996,0.7996159731999442,0.834216713834542,-0.143715959674721,0.4966760416430834,0.7329515318685262,0.4780675750269588,-0.1542488899477135,0.5507603022363787,0.8669355682804887,0.05283883304480674,-0.3489335893787308,0.4343699520643153,0.3802378512123746,834.0659340659341,607.6190476190476,519.3772893772893,861.0622710622711,634.2124542124542,0.334961,-0.029297,0.948853,-5.211334,-7.596436,6.355286,1,1,1,4,1,55.000000
2023-09-13 16:41:07.227,0.4453791522975823,0.09299562960594836,0.7919430666448543,0.7673386317831539,0.3285850422706941,-0.3509287087331324,1.102225848582996,0.7996159731999442,0.834216713834542,-0.143715959674721,0.4966760416430834,0.7329515318685262,0.4780675750269588,-0.1542488899477135,0.5507603022363787,0.8669355682804887,0.05283883304480674,-0.3489335893787308,0.4343699520643153,0.3802378512123746,815.5311355311355,753.0769230769231,703.5164835164835,811.5018315018315,662.4175824175825,0.247253,-0.041626,0.961914,0.986938,-2.429962,-1.031799,1,2,1,1,2,55.000000
2023-09-13 16:41:08.225,0.4453791522975823,0.09299562960594836,0.7919430666448543,1.161782660803548,0.3285850422706941,-0.3509287087331324,1.102225848582996,0.8421538374334749,0.834216713834542,-0.143715959674721,0.4966760416430834,0.8610722716702397,0.4780675750269588,-0.1542488899477135,0.5507603022363787,0.8406494419494426,0.05283883304480674,-0.3489335893787308,0.4343699520643153,0.7915790229395095,592.3076923076924,1635.897435897436,1625.018315018315,568.5347985347986,714.7985347985348,0.110229,-0.017578,0.962280,-2.863617,42.520599,0.104675,1,1,1,1,1,55.000000
2023-09-13 16:41:08.360,,,,,,,,,,,,,,,,,,,,,,,,,,,,,,,,,,,,,,/muse/elements/jaw_clench
2023-09-13 16:41:08.584,,,,,,,,,,,,,,,,,,,,,,,,,,,,,,,,,,,,,,/muse/elements/blink
2023-09-13 16:41:09.225,0.4453791522975823,0.09299562960594836,0.7919430666448543,1.154019452543735,0.3285850422706941,-0.3509287087331324,1.102225848582996,0.8887665776252124,0.834216713834542,-0.143715959674721,0.4966760416430834,0.8609830318499794,0.4780675750269588,-0.1542488899477135,0.5507603022363787,0.8235789565416606,0.05283883304480674,-0.3489335893787308,0.4343699520643153,0.799341648389605,782.893772893773,632.6007326007326,325.5677655677656,792.5641025641025,744.2124542124542,-0.167603,-0.125000,0.950989,-0.239258,1.742096,-0.179443,1,1,1,2,1,55.000000
2023-09-13 16:41:10.228,0.4453791522975823,0.09299562960594836,0.7919430666448543,1.154019452543735,0.3285850422706941,-0.3509287087331324,1.102225848582996,0.8887665776252124,0.834216713834542,-0.143715959674721,0.4966760416430834,0.8609830318499794,0.4780675750269588,-0.1542488899477135,0.5507603022363787,0.8235789565416606,0.05283883304480674,-0.3489335893787308,0.4343699520643153,0.799341648389605,782.0879120879121,750.6593406593407,729.3040293040293,809.0842490842491,673.2967032967033,-0.168335,-0.128967,0.981323,2.078552,1.532745,3.043060,1,1,1,2,1,55.000000
2023-09-13 16:41:11.224,0.4453791522975823,0.09299562960594836,0.7919430666448543,1.20822009814888,0.3285850422706941,-0.3509287087331324,1.102225848582996,0.9107716575985527,0.834216713834542,-0.143715959674721,0.4966760416430834,0.8984777023250842,0.4780675750269588,-0.1542488899477135,0.5507603022363787,0.996143096727347,0.05283883304480674,-0.3489335893787308,0.4343699520643153,0.7461702302438081,716.8131868131868,971.0622710622711,1414.688644688645,719.6336996336996,678.5347985347986,-0.453491,-0.022705,0.864380,-3.469238,36.987762,19.656525,1,1,1,2,1,50.000000
2023-09-13 16:41:12.225,0.4453791522975823,0.09299562960594836,0.7919430666448543,1.114382088931056,0.3285850422706941,-0.3509287087331324,1.102225848582996,0.9553492928393762,0.834216713834542,-0.143715959674721,0.4966760416430834,0.8433232885977527,0.4780675750269588,-0.1542488899477135,0.5507603022363787,0.9658919657871232,0.05283883304480674,-0.3489335893787308,0.4343699520643153,0.7237903237126788,855.4212454212454,782.4908424908425,747.4358974358975,862.2710622710623,745.8241758241759,-0.520325,-0.016052,0.839294,-2.332764,-9.121704,-1.211243,1,1,1,2,1,50.000000
2023-09-13 16:41:13.231,0.4453791522975823,0.09299562960594836,0.7919430666448543,1.114382088931056,0.3285850422706941,-0.3509287087331324,1.102225848582996,0.9553492928393762,0.834216713834542,-0.143715959674721,0.4966760416430834,0.8433232885977527,0.4780675750269588,-0.1542488899477135,0.5507603022363787,0.9658919657871232,0.05283883304480674,-0.3489335893787308,0.4343699520643153,0.7237903237126788,801.4285714285714,778.0586080586081,553.6263736263736,762.3443223443223,651.941391941392,-0.296143,-0.000732,0.969666,2.071075,-29.406281,-22.056580,1,1,1,2,1,50.000000
2023-09-13 16:41:13.575,,,,,,,,,,,,,,,,,,,,,,,,,,,,,,,,,,,,,,/muse/elements/blink
2023-09-13 16:41:14.228,0.4453791522975823,0.09299562960594836,0.7919430666448543,1.114382088931056,0.3285850422706941,-0.3509287087331324,1.102225848582996,0.9553492928393762,0.834216713834542,-0.143715959674721,0.4966760416430834,0.8433232885977527,0.4780675750269588,-0.1542488899477135,0.5507603022363787,0.9658919657871232,0.05283883304480674,-0.3489335893787308,0.4343699520643153,0.7237903237126788,750.6593406593407,742.1978021978023,1626.630036630037,766.3736263736264,687.8021978021978,0.273682,0.014954,0.946899,1.114044,-2.489777,4.172058,1,2,1,2,2,50.000000
2023-09-13 16:41:15.225,0.4453791522975823,0.09299562960594836,0.7919430666448543,1.187751763606169,0.3285850422706941,-0.3509287087331324,1.102225848582996,0.8484731580334788,0.834216713834542,-0.143715959674721,0.4966760416430834,0.8964323067845078,0.4780675750269588,-0.1542488899477135,0.5507603022363787,0.7035586593944451,0.05283883304480674,-0.3489335893787308,0.4343699520643153,0.4667521428807566,794.5787545787546,713.1868131868132,0,816.3369963369963,595.934065934066,0.263062,-0.081909,0.958496,-9.114227,-2.736511,-8.934784,1,2,1,4,2,50.000000
2023-09-13 16:41:16.225,1.411591766005221,0.09299562960594836,0.7919430666448543,1.407785672139899,0.8160548990412342,-0.3509287087331324,1.102225848582996,0.815044501929875,0.7037573105234551,-0.143715959674721,0.4966760416430834,1.028773220526153,0.429013844278288,-0.1542488899477135,0.5507603022363787,0.6759320687867511,0.1204605643616857,-0.3489335893787308,0.4343699520643153,0.5358137739992113,784.1025641025641,766.3736263736264,823.992673992674,782.0879120879121,685.3846153846154,0.216492,-0.145752,0.917725,4.448700,-1.383209,-7.678680,1,1,1,2,1,50.000000
2023-09-13 16:41:16.805,,,,,,,,,,,,,,,,,,,,,,,,,,,,,,,,,,,,,,/muse/elements/jaw_clench
2023-09-13 16:41:16.988,,,,,,,,,,,,,,,,,,,,,,,,,,,,,,,,,,,,,,/muse/elements/blink
2023-09-13 16:41:17.225,1.38831329293753,0.09299562960594836,0.7919430666448543,1.410739993946957,0.6750941197416765,-0.3509287087331324,1.102225848582996,0.6378478948143484,0.762110127863711,-0.143715959674721,0.4966760416430834,0.8462093558302743,0.3979713549261833,-0.1542488899477135,0.5507603022363787,0.6617526519157221,0.1291116849444066,-0.3489335893787308,0.4343699520643153,0.5640872650091341,754.6886446886447,756.7032967032967,569.3406593406594,778.4615384615385,745.4212454212454,-0.286560,-0.092651,0.942627,-5.996399,19.409790,6.639404,1,1,1,4,1,50.000000
2023-09-13 16:41:17.391,,,,,,,,,,,,,,,,,,,,,,,,,,,,,,,,,,,,,,/muse/elements/jaw_clench
2023-09-13 16:41:18.209,,,,,,,,,,,,,,,,,,,,,,,,,,,,,,,,,,,,,,/muse/elements/jaw_clench
2023-09-13 16:41:18.225,1.092836284462043,0.09299562960594836,0.7919430666448543,1.270349824289818,0.333942049787684,-0.3509287087331324,1.102225848582996,0.5102310324264848,0.6315455237716197,-0.143715959674721,0.4966760416430834,0.572280100059458,0.3819383729882491,-0.1542488899477135,0.5507603022363787,0.7160972401488941,0.007097441509407615,-0.3489335893787308,0.4343699520643153,0.5304478897016847,794.1758241758242,766.3736263736264,468.2051282051282,853.4065934065934,752.6739926739926,-0.250183,-0.252991,0.932007,1.398163,-0.059814,0.269165,1,1,1,2,1,50.000000
2023-09-13 16:41:19.229,1.092836284462043,0.09299562960594836,0.7919430666448543,1.270349824289818,0.333942049787684,-0.3509287087331324,1.102225848582996,0.5102310324264848,0.6315455237716197,-0.143715959674721,0.4966760416430834,0.572280100059458,0.3819383729882491,-0.1542488899477135,0.5507603022363787,0.7160972401488941,0.007097441509407615,-0.3489335893787308,0.4343699520643153,0.5304478897016847,804.2490842490843,736.959706959707,508.9010989010989,787.7289377289378,718.8278388278388,-0.339722,-0.229858,0.862671,14.781647,0.583191,36.875610,1,1,1,2,1,50.000000
2023-09-13 16:41:20.234,1.092836284462043,0.09299562960594836,0.7919430666448543,1.270349824289818,0.333942049787684,-0.3509287087331324,1.102225848582996,0.5102310324264848,0.6315455237716197,-0.143715959674721,0.4966760416430834,0.572280100059458,0.3819383729882491,-0.1542488899477135,0.5507603022363787,0.7160972401488941,0.007097441509407615,-0.3489335893787308,0.4343699520643153,0.5304478897016847,828.8278388278388,764.7619047619048,1629.047619047619,821.5750915750916,817.948717948718,-0.028992,0.230042,0.962402,1.136475,-16.336823,-21.892090,1,2,1,2,2,50.000000
2023-09-13 16:41:21.224,1.092836284462043,0.09299562960594836,0.7919430666448543,1.270349824289818,0.333942049787684,-0.3509287087331324,1.102225848582996,0.5102310324264848,0.6315455237716197,-0.143715959674721,0.4966760416430834,0.572280100059458,0.3819383729882491,-0.1542488899477135,0.5507603022363787,0.7160972401488941,0.007097441509407615,-0.3489335893787308,0.4343699520643153,0.5304478897016847,812.3076923076924,802.2344322344322,491.1721611721612,839.7069597069598,716.4102564102565,-0.076111,0.106384,0.975342,2.983246,-2.153320,-2.056122,1,2,1,4,2,50.000000
2023-09-13 16:41:21.247,,,,,,,,,,,,,,,,,,,,,,,,,,,,,,,,,,,,,,/muse/elements/jaw_clench
2023-09-13 16:41:22.225,1.092836284462043,0.09299562960594836,0.7919430666448543,1.270349824289818,0.333942049787684,-0.3509287087331324,1.102225848582996,0.5102310324264848,0.6315455237716197,-0.143715959674721,0.4966760416430834,0.572280100059458,0.3819383729882491,-0.1542488899477135,0.5507603022363787,0.7160972401488941,0.007097441509407615,-0.3489335893787308,0.4343699520643153,0.5304478897016847,790.5494505494506,756.3003663003664,722.8571428571429,796.1904761904763,620.1098901098901,-0.147644,0.044983,0.977905,2.586975,-2.594452,4.710388,1,2,1,1,2,50.000000
2023-09-13 16:41:23.227,1.092836284462043,0.09299562960594836,0.7919430666448543,1.184776805734319,0.333942049787684,-0.3509287087331324,1.102225848582996,0.8027939554183989,0.6315455237716197,-0.143715959674721,0.4966760416430834,1.108352808902572,0.3819383729882491,-0.1542488899477135,0.5507603022363787,0.9414324839737186,0.007097441509407615,-0.3489335893787308,0.4343699520643153,0.5429230920997612,794.1758241758242,797.3992673992674,834.0659340659341,782.4908424908425,979.5238095238095,-0.227417,0.096741,0.984558,-4.874878,1.839294,21.510773,1,1,1,2,1,50.000000
2023-09-13 16:41:24.228,1.504500739924508,0.09299562960594836,0.7919430666448543,1.204733995988617,1.146311446442458,-0.3509287087331324,1.102225848582996,0.9489939557938756,1.255099504067644,-0.143715959674721,0.4966760416430834,1.072211071338351,1.03095081688141,-0.1542488899477135,0.5507603022363787,1.108659873737922,0.8679763445226439,-0.3489335893787308,0.4343699520643153,0.5505933946316611,793.7728937728938,836.8864468864469,778.4615384615385,798.2051282051282,733.3333333333334,-0.612305,0.034668,0.797913,9.974060,-1.951447,-36.785889,1,1,1,4,1,50.000000
2023-09-13 16:41:24.639,,,,,,,,,,,,,,,,,,,,,,,,,,,,,,,,,,,,,,/muse/elements/blink
2023-09-13 16:41:25.230,1.576252531065222,0.09299562960594836,0.7919430666448543,1.204733995988617,1.1988480514488,-0.3509287087331324,1.102225848582996,0.9489939557938756,1.463350288554041,-0.143715959674721,0.4966760416430834,1.072211071338351,1.142201987228032,-0.1542488899477135,0.5507603022363787,1.108659873737922,0.9161667122649139,-0.3489335893787308,0.4343699520643153,0.5505933946316611,812.7106227106227,729.3040293040293,335.6410256410256,809.4871794871796,656.3736263736264,-0.346313,-0.049500,0.933960,10.654449,-31.686707,-1.009369,1,1,1,2,1,50.000000
2023-09-13 16:41:26.225,1.566552121445622,0.09299562960594836,0.7919430666448543,1.204733995988617,1.121897242270592,-0.3509287087331324,1.102225848582996,0.9489939557938756,1.422204460350606,-0.143715959674721,0.4966760416430834,1.072211071338351,1.221456805918794,-0.1542488899477135,0.5507603022363787,1.108659873737922,0.9714788409464458,-0.3489335893787308,0.4343699520643153,0.5505933946316611,813.919413919414,792.1611721611722,593.919413919414,789.7435897435897,917.0695970695971,-0.171143,-0.078003,0.947388,4.755249,-5.585175,25.847321,1,1,1,2,1,50.000000
2023-09-13 16:41:27.225,1.566552121445622,0.09299562960594836,0.7919430666448543,1.204733995988617,1.121897242270592,-0.3509287087331324,1.102225848582996,0.9489939557938756,1.422204460350606,-0.143715959674721,0.4966760416430834,1.072211071338351,1.221456805918794,-0.1542488899477135,0.5507603022363787,1.108659873737922,0.9714788409464458,-0.3489335893787308,0.4343699520643153,0.5505933946316611,813.919413919414,776.8498168498169,734.5421245421246,811.9047619047619,790.1465201465202,-0.079285,0.030518,0.989746,2.377625,-1.136475,2.497253,1,2,1,1,2,50.000000
2023-09-13 16:41:28.228,1.00157574351901,0.2990120781861716,0.7919430666448543,1.052766997334964,0.494883123170068,-0.05572019211097655,1.102225848582996,0.3186895408934005,0.545579964559777,-0.2075957687454308,0.4966760416430834,0.5159572628403775,0.6740024045252512,0.2971067547907938,0.5507603022363787,0.760850833912137,-0.04670198045221743,0.03197058945094852,0.4343699520643153,0.3913524358472569,832.8571428571429,787.7289377289378,719.2307692307693,834.8717948717949,737.7655677655678,-0.027771,0.003235,0.980530,0.149536,-4.418793,7.932892,1,1,1,1,1,50.000000
2023-09-13 16:41:29.225,0.9441321057270355,0.5389266294709465,0.7919430666448543,0.878434381061878,0.9308047013196951,0.5179001929254938,1.102225848582996,-0.03077904609475028,1.015229606994952,0.4465436960399565,0.4966760416430834,0.5056479392682096,0.6831157384472263,0.1999115354956743,0.5507603022363787,0.6077821100310489,0.1397350729156651,0.04654539885185856,0.4343699520643153,0.3785607128810887,789.7435897435897,890.8791208791209,1439.267399267399,808.6813186813187,717.6190476190476,-0.129822,0.042175,0.971497,2.930908,1.188812,-2.661743,1,1,1,1,1,50.000000
2023-09-13 16:41:30.225,1.265974729240937,0.8154289251722214,0.7919430666448543,0.8791272916435336,1.23892807034901,0.7942957738881422,1.102225848582996,-0.03737773144972326,1.28932531502382,0.4375938448076581,0.4966760416430834,0.4941759363733843,0.9102159120685531,0.1027893083413019,0.5507603022363787,0.637288957018351,0.2838310767456522,0.07026272197842726,0.4343699520643153,0.3580720676702998,815.1282051282052,724.4688644688645,756.7032967032967,798.6080586080586,754.6886446886447,-0.153137,-0.044434,0.946411,1.293488,-10.878754,-2.542114,1,1,1,2,1,50.000000
2023-09-13 16:41:31.225,1.166806158604228,0.8154289251722214,0.7919430666448543,0.8791272916435336,0.9445844163068763,0.7942957738881422,1.102225848582996,-0.03737773144972326,1.128968418477959,0.4375938448076581,0.4966760416430834,0.4941759363733843,0.7346812736653343,0.1027893083413019,0.5507603022363787,0.637288957018351,0.2531708180648359,0.07026272197842726,0.4343699520643153,0.3580720676702998,794.1758241758242,776.0439560439561,777.6556776556777,796.5934065934066,616.4835164835165,-0.176270,-0.078796,0.959351,1.712189,-2.235565,5.861816,1,1,1,2,1,50.000000
2023-09-13 16:41:32.228,0.8994727581935702,0.8154289251722214,0.7919430666448543,0.749101001938587,0.6082166321961827,0.7942957738881422,1.102225848582996,0.8002350358270415,0.7939366553430746,0.4375938448076581,0.4966760416430834,1.217250041924572,0.6578912230992933,0.1027893083413019,0.5507603022363787,0.8912829475696163,0.2478523817671493,0.07026272197842726,0.4343699520643153,0.8322844676428565,803.040293040293,766.7765567765568,732.9304029304029,800.2197802197802,734.9450549450549,-0.191711,-0.082520,0.965759,0.523376,-7.678680,-1.794434,1,1,1,2,1,55.000000
2023-09-13 16:41:32.955,,,,,,,,,,,,,,,,,,,,,,,,,,,,,,,,,,,,,,/muse/elements/blink
2023-09-13 16:41:33.224,0.8287236342305585,0.7489329032042868,0.7919430666448543,0.7464290371407205,0.5473191692875865,0.7025002998657233,1.102225848582996,0.7543737643579126,0.761438580871624,0.5122080254072515,0.4966760416430834,1.188808498982247,0.6866665348024121,0.0139736210213592,0.5507603022363787,0.9172237992426066,0.2438804463918144,-0.3976837763945067,0.4343699520643153,0.8453829070892241,846.5567765567765,771.6117216117216,693.040293040293,832.0512820512821,643.0769230769231,-0.007568,-0.078369,0.989075,32.322235,-0.291595,-0.456085,1,1,1,1,1,55.000000
2023-09-13 16:41:34.225,0.805989069534239,0.9425836292077953,0.7919430666448543,0.7464290371407205,0.5313034671795771,0.8848313451027906,1.102225848582996,0.7543737643579126,0.6709947737147707,0.5870095351652843,0.4966760416430834,1.188808498982247,0.6007471338158172,0.1394075141816965,0.5507603022363787,0.9172237992426066,0.1647592428062166,-0.3659283385426715,0.4343699520643153,0.8453829070892241,807.4725274725275,691.8315018315019,876.7765567765568,826.4102564102565,680.1465201465202,-0.529053,0.101074,0.822205,5.390778,-0.732727,-19.043427,1,1,1,4,1,55.000000
2023-09-13 16:41:35.225,0.805989069534239,0.9983921905595305,0.7919430666448543,0.7464290371407205,0.5313034671795771,0.9582465105708833,1.102225848582996,0.7543737643579126,0.6709947737147707,0.5792682384072136,0.4966760416430834,1.188808498982247,0.6007471338158172,0.2119543775077909,0.5507603022363787,0.9172237992426066,0.1647592428062166,-0.3319946414758027,0.4343699520643153,0.8453829070892241,817.1428571428571,759.92673992674,47.94871794871795,801.4285714285714,971.0622710622711,-0.244263,0.087280,0.911926,-1.846771,-31.544647,10.908661,1,1,1,4,1,55.000000
2023-09-13 16:41:36.225,0.805989069534239,0.9983921905595305,0.7919430666448543,0.7464290371407205,0.5313034671795771,0.9582465105708833,1.102225848582996,0.7543737643579126,0.6709947737147707,0.5792682384072136,0.4966760416430834,1.188808498982247,0.6007471338158172,0.2119543775077909,0.5507603022363787,0.9172237992426066,0.1647592428062166,-0.3319946414758027,0.4343699520643153,0.8453829070892241,812.7106227106227,788.1318681318681,676.5201465201466,828.021978021978,724.8717948717949,-0.049927,-0.055176,0.970520,0.971985,-0.560760,-8.015137,1,2,1,2,2,55.000000
2023-09-13 16:41:37.225,0.805989069534239,0.9983921905595305,0.7919430666448543,0.7464290371407205,0.5313034671795771,0.9582465105708833,1.102225848582996,0.7543737643579126,0.6709947737147707,0.5792682384072136,0.4966760416430834,1.188808498982247,0.6007471338158172,0.2119543775077909,0.5507603022363787,0.9172237992426066,0.1647592428062166,-0.3319946414758027,0.4343699520643153,0.8453829070892241,803.4432234432235,777.6556776556777,740.1831501831502,805.0549450549451,644.6886446886447,-0.087708,0.023987,0.993286,6.116028,0.343933,27.656708,1,2,1,2,2,55.000000
2023-09-13 16:41:38.199,,,,,,,,,,,,,,,,,,,,,,,,,,,,,,,,,,,,,,/muse/elements/blink
2023-09-13 16:41:38.224,0.805989069534239,0.9983921905595305,0.7919430666448543,0.9208215237400239,0.5313034671795771,0.9582465105708833,1.102225848582996,0.4616274011775354,0.6709947737147707,0.5792682384072136,0.4966760416430834,0.5772789530778206,0.6007471338158172,0.2119543775077909,0.5507603022363787,0.8601438821764202,0.1647592428062166,-0.3319946414758027,0.4343699520643153,0.659898203020846,859.047619047619,764.3589743589744,1058.498168498169,896.1172161172161,910.2197802197802,-0.460022,0.162109,0.901794,36.875610,24.980011,-126.888885,1,1,1,2,1,55.000000
2023-09-13 16:41:38.930,,,,,,,,,,,,,,,,,,,,,,,,,,,,,,,,,,,,,,/muse/elements/blink
2023-09-13 16:41:39.225,0.805989069534239,0.9983921905595305,0.7919430666448543,0.9208215237400239,0.5313034671795771,0.9582465105708833,1.102225848582996,0.4616274011775354,0.6709947737147707,0.5792682384072136,0.4966760416430834,0.5772789530778206,0.6007471338158172,0.2119543775077909,0.5507603022363787,0.8601438821764202,0.1647592428062166,-0.3319946414758027,0.4343699520643153,0.659898203020846,813.5164835164835,1150.769230769231,0,791.3553113553114,667.2527472527473,-0.261536,0.109253,0.945557,7.065582,12.501221,-16.127472,1,1,1,4,1,55.000000
2023-09-13 16:41:39.438,,,,,,,,,,,,,,,,,,,,,,,,,,,,,,,,,,,,,,/muse/elements/jaw_clench
2023-09-13 16:41:39.770,,,,,,,,,,,,,,,,,,,,,,,,,,,,,,,,,,,,,,/muse/elements/blink
2023-09-13 16:41:40.225,0.805989069534239,0.9983921905595305,0.7919430666448543,0.9208215237400239,0.5313034671795771,0.9582465105708833,1.102225848582996,0.4616274011775354,0.6709947737147707,0.5792682384072136,0.4966760416430834,0.5772789530778206,0.6007471338158172,0.2119543775077909,0.5507603022363787,0.8601438821764202,0.1647592428062166,-0.3319946414758027,0.4343699520643153,0.659898203020846,660.4029304029305,840.5128205128206,618.901098901099,667.2527472527473,710.7692307692308,-0.734497,0.007751,0.714111,28.464203,-0.957031,-89.751587,1,2,1,2,2,55.000000
2023-09-13 16:41:40.459,,,,,,,,,,,,,,,,,,,,,,,,,,,,,,,,,,,,,,/muse/elements/blink
2023-09-13 16:41:41.225,0.805989069534239,0.9983921905595305,0.7919430666448543,0.9208215237400239,0.5313034671795771,0.9582465105708833,1.102225848582996,0.4616274011775354,0.6709947737147707,0.5792682384072136,0.4966760416430834,0.5772789530778206,0.6007471338158172,0.2119543775077909,0.5507603022363787,0.8601438821764202,0.1647592428062166,-0.3319946414758027,0.4343699520643153,0.659898203020846,908.2051282051282,866.7032967032967,0,581.8315018315019,861.4652014652015,-0.517578,-0.088928,0.793274,-23.551941,23.671570,154.411011,1,2,2,4,2,55.000000
2023-09-13 16:41:41.275,,,,,,,,,,,,,,,,,,,,,,,,,,,,,,,,,,,,,,/muse/elements/blink
2023-09-13 16:41:41.524,,,,,,,,,,,,,,,,,,,,,,,,,,,,,,,,,,,,,,/muse/elements/blink
2023-09-13 16:41:42.224,0.805989069534239,0.9983921905595305,0.7919430666448543,0.9208215237400239,0.5313034671795771,0.9582465105708833,1.102225848582996,0.4616274011775354,0.6709947737147707,0.5792682384072136,0.4966760416430834,0.5772789530778206,0.6007471338158172,0.2119543775077909,0.5507603022363787,0.8601438821764202,0.1647592428062166,-0.3319946414758027,0.4343699520643153,0.659898203020846,819.96336996337,810.2930402930403,856.6300366300367,811.0989010989011,752.6739926739926,-0.368591,-0.013672,0.912292,0.755157,0.224304,-0.672913,1,2,1,2,2,55.000000
2023-09-13 16:41:43.224,0.805989069534239,0.9983921905595305,0.7919430666448543,0.9208215237400239,0.5313034671795771,0.9582465105708833,1.102225848582996,0.4616274011775354,0.6709947737147707,0.5792682384072136,0.4966760416430834,0.5772789530778206,0.6007471338158172,0.2119543775077909,0.5507603022363787,0.8601438821764202,0.1647592428062166,-0.3319946414758027,0.4343699520643153,0.659898203020846,814.7252747252747,806.6666666666667,255.0549450549451,830.4395604395604,756.3003663003664,-0.494995,0.183044,0.856079,-4.276733,-0.530853,20.927582,1,2,1,2,2,55.000000
2023-09-13 16:41:44.024,,,,,,,,,,,,,,,,,,,,,,,,,,,,,,,,,,,,,,/muse/elements/blink
2023-09-13 16:41:44.224,0.805989069534239,0.9983921905595305,0.7919430666448543,0.9208215237400239,0.5313034671795771,0.9582465105708833,1.102225848582996,0.4616274011775354,0.6709947737147707,0.5792682384072136,0.4966760416430834,0.5772789530778206,0.6007471338158172,0.2119543775077909,0.5507603022363787,0.8601438821764202,0.1647592428062166,-0.3319946414758027,0.4343699520643153,0.659898203020846,787.3260073260074,733.3333333333334,687.8021978021978,786.9230769230769,722.4542124542124,-0.267639,0.072815,0.967896,9.061890,-15.028381,-6.931000,1,2,1,4,2,55.000000
2023-09-13 16:41:44.920,,,,,,,,,,,,,,,,,,,,,,,,,,,,,,,,,,,,,,/muse/elements/blink
2023-09-13 16:41:45.224,0.805989069534239,0.9983921905595305,0.7919430666448543,0.9208215237400239,0.5313034671795771,0.9582465105708833,1.102225848582996,0.4616274011775354,0.6709947737147707,0.5792682384072136,0.4966760416430834,0.5772789530778206,0.6007471338158172,0.2119543775077909,0.5507603022363787,0.8601438821764202,0.1647592428062166,-0.3319946414758027,0.4343699520643153,0.659898203020846,802.6373626373627,792.967032967033,716.4102564102565,797.3992673992674,644.6886446886447,-0.241150,0.018372,0.964966,6.130981,6.123505,20.964966,1,2,1,2,2,55.000000
2023-09-13 16:41:45.755,,,,,,,,,,,,,,,,,,,,,,,,,,,,,,,,,,,,,,/muse/elements/blink
2023-09-13 16:41:46.224,0.805989069534239,0.9983921905595305,0.7919430666448543,0.9208215237400239,0.5313034671795771,0.9582465105708833,1.102225848582996,0.4616274011775354,0.6709947737147707,0.5792682384072136,0.4966760416430834,0.5772789530778206,0.6007471338158172,0.2119543775077909,0.5507603022363787,0.8601438821764202,0.1647592428062166,-0.3319946414758027,0.4343699520643153,0.659898203020846,828.4249084249085,657.985347985348,0,876.3736263736264,849.7802197802198,-0.475037,0.012390,0.862061,3.977661,-26.370697,-25.137024,1,2,1,4,2,55.000000
2023-09-13 16:41:47.224,0.805989069534239,0.9983921905595305,0.7919430666448543,0.9208215237400239,0.5313034671795771,0.9582465105708833,1.102225848582996,0.4616274011775354,0.6709947737147707,0.5792682384072136,0.4966760416430834,0.5772789530778206,0.6007471338158172,0.2119543775077909,0.5507603022363787,0.8601438821764202,0.1647592428062166,-0.3319946414758027,0.4343699520643153,0.659898203020846,807.0695970695971,773.6263736263736,0,704.3223443223443,729.3040293040293,-0.523865,0.014465,0.839294,-30.363312,2.512207,83.665466,1,2,1,4,2,55.000000
2023-09-13 16:41:47.956,,,,,,,,,,,,,,,,,,,,,,,,,,,,,,,,,,,,,,/muse/elements/blink
2023-09-13 16:41:48.224,0.805989069534239,0.9983921905595305,0.7919430666448543,0.9208215237400239,0.5313034671795771,0.9582465105708833,1.102225848582996,0.4616274011775354,0.6709947737147707,0.5792682384072136,0.4966760416430834,0.5772789530778206,0.6007471338158172,0.2119543775077909,0.5507603022363787,0.8601438821764202,0.1647592428062166,-0.3319946414758027,0.4343699520643153,0.659898203020846,853.4065934065934,702.3076923076924,1042.783882783883,877.985347985348,707.948717948718,0.288574,0.062988,0.981445,0.321503,-16.703186,-20.194855,1,2,1,4,2,55.000000
2023-09-13 16:41:48.657,,,,,,,,,,,,,,,,,,,,,,,,,,,,,,,,,,,,,,/muse/elements/blink
2023-09-13 16:41:49.227,0.805989069534239,0.9983921905595305,0.7919430666448543,0.9208215237400239,0.5313034671795771,0.9582465105708833,1.102225848582996,0.4616274011775354,0.6709947737147707,0.5792682384072136,0.4966760416430834,0.5772789530778206,0.6007471338158172,0.2119543775077909,0.5507603022363787,0.8601438821764202,0.1647592428062166,-0.3319946414758027,0.4343699520643153,0.659898203020846,807.4725274725275,891.2820512820513,849.3772893772895,709.1575091575091,681.3553113553114,-0.232056,0.244934,0.893066,11.020813,22.288361,6.549683,1,2,1,4,2,55.000000
2023-09-13 16:41:50.193,,,,,,,,,,,,,,,,,,,,,,,,,,,,,,,,,,,,,,/muse/elements/blink
2023-09-13 16:41:50.224,0.805989069534239,0.9983921905595305,0.7919430666448543,0.9208215237400239,0.5313034671795771,0.9582465105708833,1.102225848582996,0.4616274011775354,0.6709947737147707,0.5792682384072136,0.4966760416430834,0.5772789530778206,0.6007471338158172,0.2119543775077909,0.5507603022363787,0.8601438821764202,0.1647592428062166,-0.3319946414758027,0.4343699520643153,0.659898203020846,822.3809523809524,755.0915750915751,1625.421245421245,718.4249084249085,796.1904761904763,0.051941,0.041565,0.909119,-23.372498,-16.658325,73.900757,1,2,1,4,2,55.000000
2023-09-13 16:41:51.224,0.805989069534239,0.9983921905595305,0.7919430666448543,0.9208215237400239,0.5313034671795771,0.9582465105708833,1.102225848582996,0.4616274011775354,0.6709947737147707,0.5792682384072136,0.4966760416430834,0.5772789530778206,0.6007471338158172,0.2119543775077909,0.5507603022363787,0.8601438821764202,0.1647592428062166,-0.3319946414758027,0.4343699520643153,0.659898203020846,778.0586080586081,748.2417582417582,11.28205128205128,782.0879120879121,668.8644688644689,-0.447144,0.072937,0.871033,-14.624634,5.450592,32.681122,1,2,1,4,2,55.000000
2023-09-13 16:41:52.118,,,,,,,,,,,,,,,,,,,,,,,,,,,,,,,,,,,,,,/muse/elements/blink
2023-09-13 16:41:52.224,0.805989069534239,0.9983921905595305,0.7919430666448543,0.9208215237400239,0.5313034671795771,0.9582465105708833,1.102225848582996,0.4616274011775354,0.6709947737147707,0.5792682384072136,0.4966760416430834,0.5772789530778206,0.6007471338158172,0.2119543775077909,0.5507603022363787,0.8601438821764202,0.1647592428062166,-0.3319946414758027,0.4343699520643153,0.659898203020846,823.1868131868132,643.8827838827839,970.6593406593407,753.0769230769231,617.2893772893773,-0.460205,0.011597,0.847351,16.815338,-5.846863,-46.244049,1,2,1,4,2,55.000000
2023-09-13 16:41:53.224,0.805989069534239,0.9983921905595305,0.7919430666448543,0.9208215237400239,0.5313034671795771,0.9582465105708833,1.102225848582996,0.4616274011775354,0.6709947737147707,0.5792682384072136,0.4966760416430834,0.5772789530778206,0.6007471338158172,0.2119543775077909,0.5507603022363787,0.8601438821764202,0.1647592428062166,-0.3319946414758027,0.4343699520643153,0.659898203020846,814.3223443223443,790.1465201465202,837.6923076923077,814.7252747252747,801.4285714285714,-0.430786,0.027954,0.896484,9.181519,7.073059,-14.946136,1,2,1,1,2,50.000000
2023-09-13 16:41:54.229,0.7978519978199975,0.9983921905595305,0.7919430666448543,0.9374394577108235,0.7348460627273314,0.9582465105708833,1.102225848582996,0.8291270249993051,0.8610646004936433,0.5792682384072136,0.4966760416430834,1.183791129691369,0.6932762158729121,0.2119543775077909,0.5507603022363787,0.9310801685072,0.3284160882336814,-0.3319946414758027,0.4343699520643153,0.6241727139402076,803.4432234432235,806.2637362637363,772.014652014652,803.4432234432235,728.901098901099,-0.592102,0.029419,0.777527,-3.132782,3.760834,15.776062,1,1,1,1,1,50.000000
2023-09-13 16:41:55.224,0.915294953722273,0.9983921905595305,0.7919430666448543,0.950668024736706,0.7061613402642504,0.9582465105708833,1.102225848582996,0.8060827504345957,0.8704228790895517,0.5792682384072136,0.4966760416430834,1.183791129691369,0.7075341303221703,0.2119543775077909,0.5507603022363787,0.9134513342403835,0.309977760892285,-0.3319946414758027,0.4343699520643153,0.638403451543708,785.7142857142858,771.2087912087912,753.8827838827839,795.3846153846154,682.1611721611722,-0.624329,0.036682,0.767822,1.495361,-5.069275,0.239258,1,1,1,1,1,50.000000
2023-09-13 16:41:56.224,1.053110919509288,0.9983921905595305,0.7919430666448543,0.8612754679800353,0.6680994853974638,0.9582465105708833,1.102225848582996,0.4863354247818435,0.9336681234392729,0.5792682384072136,0.4966760416430834,0.6121127845670504,0.7297579024468415,0.2119543775077909,0.5507603022363787,0.8208255975269225,0.3991513740041879,-0.3319946414758027,0.4343699520643153,0.7343229679115909,804.2490842490843,728.901098901099,614.8717948717949,788.9377289377289,695.4578754578755,-0.475830,0.144592,0.867249,-0.545807,-13.084412,-6.512299,1,1,1,4,1,50.000000
2023-09-13 16:41:57.224,1.053110919509288,0.9983921905595305,0.7919430666448543,0.8612754679800353,0.6680994853974638,0.9582465105708833,1.102225848582996,0.4863354247818435,0.9336681234392729,0.5792682384072136,0.4966760416430834,0.6121127845670504,0.7297579024468415,0.2119543775077909,0.5507603022363787,0.8208255975269225,0.3991513740041879,-0.3319946414758027,0.4343699520643153,0.7343229679115909,848.5714285714286,767.985347985348,1625.421245421245,882.4175824175825,698.6813186813187,-0.037537,0.141968,0.940430,20.037842,-112.054901,-91.022644,1,1,1,4,1,50.000000
2023-09-13 16:41:57.261,,,,,,,,,,,,,,,,,,,,,,,,,,,,,,,,,,,,,,/muse/elements/jaw_clench
2023-09-13 16:41:57.377,,,,,,,,,,,,,,,,,,,,,,,,,,,,,,,,,,,,,,/muse/elements/blink
2023-09-13 16:41:58.050,,,,,,,,,,,,,,,,,,,,,,,,,,,,,,,,,,,,,,/muse/elements/jaw_clench
2023-09-13 16:41:58.224,1.053110919509288,0.9983921905595305,0.7919430666448543,0.8612754679800353,0.6680994853974638,0.9582465105708833,1.102225848582996,0.4863354247818435,0.9336681234392729,0.5792682384072136,0.4966760416430834,0.6121127845670504,0.7297579024468415,0.2119543775077909,0.5507603022363787,0.8208255975269225,0.3991513740041879,-0.3319946414758027,0.4343699520643153,0.7343229679115909,823.1868131868132,797.8021978021978,803.4432234432235,905.3846153846154,666.4468864468864,0.158936,0.017334,0.966919,2.609406,2.519684,1.218719,1,2,1,4,2,50.000000
2023-09-13 16:41:58.658,,,,,,,,,,,,,,,,,,,,,,,,,,,,,,,,,,,,,,/muse/elements/blink
2023-09-13 16:41:59.231,1.053110919509288,0.9983921905595305,0.7919430666448543,0.8612754679800353,0.6680994853974638,0.9582465105708833,1.102225848582996,0.4863354247818435,0.9336681234392729,0.5792682384072136,0.4966760416430834,0.6121127845670504,0.7297579024468415,0.2119543775077909,0.5507603022363787,0.8208255975269225,0.3991513740041879,-0.3319946414758027,0.4343699520643153,0.7343229679115909,792.967032967033,771.6117216117216,31.42857142857143,849.3772893772895,780.4761904761905,-0.239258,0.045349,0.955627,0.246735,22.759399,-19.544373,1,2,1,4,2,50.000000
2023-09-13 16:41:59.267,,,,,,,,,,,,,,,,,,,,,,,,,,,,,,,,,,,,,,/muse/elements/jaw_clench
2023-09-13 16:42:00.224,1.053110919509288,0.9983921905595305,0.7919430666448543,0.8612754679800353,0.6680994853974638,0.9582465105708833,1.102225848582996,0.4863354247818435,0.9336681234392729,0.5792682384072136,0.4966760416430834,0.6121127845670504,0.7297579024468415,0.2119543775077909,0.5507603022363787,0.8208255975269225,0.3991513740041879,-0.3319946414758027,0.4343699520643153,0.7343229679115909,780.8791208791209,759.5238095238095,874.3589743589744,799.8168498168499,895.3113553113553,-0.358948,0.014526,0.914307,1.353302,-6.624451,0.560760,1,2,1,4,2,50.000000
2023-09-13 16:42:01.224,1.053110919509288,0.9133070553772011,0.7919430666448543,1.18306619832447,0.6680994853974638,0.1661106983711654,1.102225848582996,0.5684808300641075,0.9336681234392729,-0.03497431927547136,0.4966760416430834,1.076919333710515,0.7297579024468415,0.5745586588574054,0.5507603022363787,0.5733102744494956,0.3991513740041879,0.4539576807060431,0.4343699520643153,0.4692298819145175,767.985347985348,778.8644688644689,691.025641025641,796.1904761904763,729.3040293040293,-0.405457,0.014587,0.903015,1.271057,-3.013153,-0.246735,1,1,1,4,1,50.000000
2023-09-13 16:42:01.788,,,,,,,,,,,,,,,,,,,,,,,,,,,,,,,,,,,,,,/muse/elements/blink
2023-09-13 16:42:02.224,1.053110919509288,0.9133070553772011,0.7919430666448543,1.202282538890785,0.6680994853974638,0.1661106983711654,1.102225848582996,0.5903175380728185,0.9336681234392729,-0.03497431927547136,0.4966760416430834,1.056708507789109,0.7297579024468415,0.5745586588574054,0.5507603022363787,0.5505721624176122,0.3991513740041879,0.4539576807060431,0.4343699520643153,0.46495176454445,826.007326007326,786.1172161172161,734.1391941391942,831.2454212454213,715.6043956043957,0.220703,0.029175,0.962463,1.218719,-0.104675,-2.198181,1,1,1,4,1,50.000000
2023-09-13 16:42:02.592,,,,,,,,,,,,,,,,,,,,,,,,,,,,,,,,,,,,,,/muse/elements/blink
2023-09-13 16:42:03.224,1.053110919509288,0.9133070553772011,0.7919430666448543,1.277116142597836,0.6680994853974638,0.1661106983711654,1.102225848582996,0.6498442642130964,0.9336681234392729,-0.03497431927547136,0.4966760416430834,1.05649470358874,0.7297579024468415,0.5745586588574054,0.5507603022363787,0.547741421695108,0.3991513740041879,0.4539576807060431,0.4343699520643153,0.4564442783455964,833.6630036630037,885.6410256410256,0,837.6923076923077,869.5238095238095,-0.120483,0.252563,0.938171,-0.142059,9.532928,0.336456,1,1,1,4,1,50.000000
2023-09-13 16:42:03.304,,,,,,,,,,,,,,,,,,,,,,,,,,,,,,,,,,,,,,/muse/elements/blink
2023-09-13 16:42:04.132,,,,,,,,,,,,,,,,,,,,,,,,,,,,,,,,,,,,,,/muse/elements/jaw_clench
2023-09-13 16:42:04.232,1.053110919509288,0.9133070553772011,0.7919430666448543,1.277116142597836,0.6680994853974638,0.1661106983711654,1.102225848582996,0.6498442642130964,0.9336681234392729,-0.03497431927547136,0.4966760416430834,1.05649470358874,0.7297579024468415,0.5745586588574054,0.5507603022363787,0.547741421695108,0.3991513740041879,0.4539576807060431,0.4343699520643153,0.4564442783455964,777.6556776556777,812.7106227106227,682.1611721611722,768.3882783882784,826.8131868131868,-0.329529,0.148438,0.896301,-9.114227,14.176025,-1.540222,1,2,1,4,2,50.000000
2023-09-13 16:42:04.312,,,,,,,,,,,,,,,,,,,,,,,,,,,,,,,,,,,,,,/muse/elements/jaw_clench
2023-09-13 16:42:05.224,1.053110919509288,0.9133070553772011,0.7919430666448543,1.277116142597836,0.6680994853974638,0.1661106983711654,1.102225848582996,0.6498442642130964,0.9336681234392729,-0.03497431927547136,0.4966760416430834,1.05649470358874,0.7297579024468415,0.5745586588574054,0.5507603022363787,0.547741421695108,0.3991513740041879,0.4539576807060431,0.4343699520643153,0.4564442783455964,761.1355311355312,780.4761904761905,585.0549450549451,804.2490842490843,827.6190476190476,-0.496033,0.053589,0.846863,1.532745,-0.919647,1.801910,1,2,1,4,2,50.000000
2023-09-13 16:42:06.223,0.6940216154825546,0.9133070553772011,0.7919430666448543,1.277116142597836,0.561742690484179,0.1661106983711654,1.102225848582996,0.6498442642130964,0.8654498008072116,-0.03497431927547136,0.4966760416430834,1.05649470358874,0.8230501060305166,0.5745586588574054,0.5507603022363787,0.547741421695108,0.7807634167029004,0.4539576807060431,0.4343699520643153,0.4564442783455964,781.6849816849817,763.956043956044,857.8388278388279,778.0586080586081,794.1758241758242,-0.483215,-0.092651,0.876221,-8.426361,-9.368439,-4.022522,1,1,1,4,1,50.000000
2023-09-13 16:42:07.228,0.8362835520736895,0.9133070553772011,0.7919430666448543,1.277116142597836,0.6565063660176073,0.1661106983711654,1.102225848582996,0.6498442642130964,0.9748387512884291,-0.03497431927547136,0.4966760416430834,1.05649470358874,0.733058728884958,0.5745586588574054,0.5507603022363787,0.547741421695108,0.6102294683043303,0.4539576807060431,0.4343699520643153,0.4564442783455964,786.1172161172161,774.8351648351648,739.7802197802198,800.6227106227107,760.3296703296703,-0.223389,-0.037659,0.991516,7.035675,-5.906677,-17.091980,1,1,1,2,1,50.000000
2023-09-13 16:42:07.881,,,,,,,,,,,,,,,,,,,,,,,,,,,,,,,,,,,,,,/muse/elements/jaw_clench
2023-09-13 16:42:08.226,1.058430698084387,0.9133070553772011,0.7919430666448543,1.277116142597836,0.9934011289980988,0.1661106983711654,1.102225848582996,0.6498442642130964,1.078445509973497,-0.03497431927547136,0.4966760416430834,1.05649470358874,0.8418653128070466,0.5745586588574054,0.5507603022363787,0.547741421695108,0.5208147732639938,0.4539576807060431,0.4343699520643153,0.4564442783455964,779.2673992673992,763.5531135531136,971.8681318681319,788.1318681318681,1018.205128205128,-0.223267,-0.097229,0.963379,2.968292,-5.607605,-1.413116,1,1,1,4,1,50.000000
2023-09-13 16:42:09.226,0.7079700345325126,0.9133070553772011,0.7919430666448543,1.277116142597836,0.6461064931627746,0.1661106983711654,1.102225848582996,0.6498442642130964,1.088802339189736,-0.03497431927547136,0.4966760416430834,1.05649470358874,0.8339998186456418,0.5745586588574054,0.5507603022363787,0.547741421695108,0.4493892720264975,0.4539576807060431,0.4343699520643153,0.4564442783455964,772.014652014652,676.5201465201466,695.8608058608058,772.014652014652,743.4065934065934,-0.240417,-0.126587,0.957886,1.899109,-0.575714,0.770111,1,1,1,1,1,50.000000
2023-09-13 16:42:10.238,0.5335029996746073,0.9133070553772011,0.7919430666448543,0.887472037120217,0.1884413093055217,0.1661106983711654,1.102225848582996,0.4514637337408915,0.8229741902294597,-0.03497431927547136,0.4966760416430834,1.033453541380682,0.5878974276070639,0.5745586588574054,0.5507603022363787,0.9146476250006921,0.07361070841613769,0.4539576807060431,0.4343699520643153,0.6802421807682656,786.1172161172161,769.5970695970697,1144.725274725275,802.2344322344322,782.4908424908425,-0.200317,-0.071472,0.967102,-1.420593,-6.078644,-1.772003,1,1,1,2,1,50.000000
2023-09-13 16:42:11.224,1.011835280618162,0.9133070553772011,0.7919430666448543,1.31510746805073,0.4507765857012349,0.1661106983711654,1.102225848582996,1.050055045612241,0.7033656851516475,-0.03497431927547136,0.4966760416430834,1.131543636185978,0.4862204015148321,0.5745586588574054,0.5507603022363787,0.7972828093083858,0.03308047824210215,0.4539576807060431,0.4343699520643153,0.7888248117916626,854.2124542124542,990.4029304029305,433.5531135531136,863.0769230769231,847.7655677655678,-0.288818,0.067688,0.929260,3.902893,6.504822,-3.058014,1,1,1,4,1,50.000000
2023-09-13 16:42:12.226,1.077488114467559,0.9133070553772011,0.7919430666448543,1.31510746805073,0.519890717003753,0.1661106983711654,1.102225848582996,1.050055045612241,0.6855181084648984,-0.03497431927547136,0.4966760416430834,1.131543636185978,0.4681931082689734,0.5745586588574054,0.5507603022363787,0.7972828093083858,0.05432919746225983,0.4539576807060431,0.4343699520643153,0.7888248117916626,825.2014652014652,740.989010989011,879.1941391941392,807.4725274725275,745.8241758241759,-0.306213,0.005920,0.923889,1.570129,-10.011444,-20.979919,1,1,1,2,1,50.000000
2023-09-13 16:42:13.224,1.077488114467559,0.9133070553772011,0.7919430666448543,1.31510746805073,0.519890717003753,0.1661106983711654,1.102225848582996,1.050055045612241,0.6855181084648984,-0.03497431927547136,0.4966760416430834,1.131543636185978,0.4681931082689734,0.5745586588574054,0.5507603022363787,0.7972828093083858,0.05432919746225983,0.4539576807060431,0.4343699520643153,0.7888248117916626,767.1794871794872,770.8058608058608,832.8571428571429,761.5384615384615,824.7985347985348,-0.242493,-0.120850,0.970825,1.428070,-2.915955,4.179535,1,1,1,4,1,50.000000
2023-09-13 16:42:14.223,1.077488114467559,0.9133070553772011,0.7919430666448543,1.31510746805073,0.519890717003753,0.1661106983711654,1.102225848582996,1.050055045612241,0.6855181084648984,-0.03497431927547136,0.4966760416430834,1.131543636185978,0.4681931082689734,0.5745586588574054,0.5507603022363787,0.7972828093083858,0.05432919746225983,0.4539576807060431,0.4343699520643153,0.7888248117916626,791.3553113553114,806.6666666666667,668.0586080586081,778.0586080586081,822.7838827838829,-0.181213,-0.157410,0.958923,-5.831909,12.366638,7.873077,1,2,1,1,2,50.000000
2023-09-13 16:42:15.233,1.077488114467559,0.9133070553772011,0.7919430666448543,1.31510746805073,0.519890717003753,0.1661106983711654,1.102225848582996,1.050055045612241,0.6855181084648984,-0.03497431927547136,0.4966760416430834,1.131543636185978,0.4681931082689734,0.5745586588574054,0.5507603022363787,0.7972828093083858,0.05432919746225983,0.4539576807060431,0.4343699520643153,0.7888248117916626,799.0109890109891,810.2930402930403,731.7216117216118,803.8461538461539,796.1904761904763,-0.439026,-0.026855,0.860962,2.250519,3.925323,15.723724,1,2,1,4,2,50.000000
2023-09-13 16:42:16.234,1.077488114467559,0.9133070553772011,0.7919430666448543,1.31510746805073,0.519890717003753,0.1661106983711654,1.102225848582996,1.050055045612241,0.6855181084648984,-0.03497431927547136,0.4966760416430834,1.131543636185978,0.4681931082689734,0.5745586588574054,0.5507603022363787,0.7972828093083858,0.05432919746225983,0.4539576807060431,0.4343699520643153,0.7888248117916626,766.7765567765568,815.934065934066,1433.626373626374,770.8058608058608,701.0989010989011,-0.518555,-0.011475,0.862915,1.854248,4.022522,-10.497437,1,2,1,4,2,50.000000
2023-09-13 16:42:17.223,1.100548649806258,0.9133070553772011,0.7919430666448543,1.31510746805073,0.9391911824217603,0.1661106983711654,1.102225848582996,1.050055045612241,0.7708899397315753,-0.03497431927547136,0.4966760416430834,1.131543636185978,0.5667958213007859,0.5745586588574054,0.5507603022363787,0.7972828093083858,0.415799480707861,0.4539576807060431,0.4343699520643153,0.7888248117916626,810.2930402930403,792.1611721611722,805.0549450549451,797.3992673992674,755.4945054945055,-0.587341,0.064331,0.781799,-30.692291,5.652466,71.941833,1,2,1,2,2,50.000000
2023-09-13 16:42:18.223,1.266616312013947,0.9133070553772011,0.7919430666448543,1.31510746805073,0.9216351157774089,0.1661106983711654,1.102225848582996,1.050055045612241,0.8623999196252794,-0.03497431927547136,0.4966760416430834,1.131543636185978,0.6244807599396165,0.5745586588574054,0.5507603022363787,0.7972828093083858,0.3635740385512921,0.4539576807060431,0.4343699520643153,0.7888248117916626,778.8644688644689,781.6849816849817,887.2527472527473,770.4029304029305,781.6849816849817,-0.554504,0.075500,0.836426,1.360779,1.256104,-0.957031,1,1,1,2,1,50.000000
2023-09-13 16:42:19.223,1.386455138850301,0.9133070553772011,0.7919430666448543,1.31510746805073,0.9033393499581821,0.1661106983711654,1.102225848582996,1.050055045612241,0.8320674736357648,-0.03497431927547136,0.4966760416430834,1.131543636185978,0.6753943479888895,0.5745586588574054,0.5507603022363787,0.7972828093083858,0.3041987170717034,0.4539576807060431,0.4343699520643153,0.7888248117916626,774.0293040293041,740.1831501831502,989.5970695970697,763.1501831501831,813.5164835164835,-0.319153,0.054321,0.924988,19.821014,0.628052,-53.160095,1,1,1,2,1,50.000000
2023-09-13 16:42:19.293,,,,,,,,,,,,,,,,,,,,,,,,,,,,,,,,,,,,,,/muse/elements/blink
2023-09-13 16:42:20.231,1.386455138850301,0.9133070553772011,0.7919430666448543,1.31510746805073,0.9033393499581821,0.1661106983711654,1.102225848582996,1.050055045612241,0.8320674736357648,-0.03497431927547136,0.4966760416430834,1.131543636185978,0.6753943479888895,0.5745586588574054,0.5507603022363787,0.7972828093083858,0.3041987170717034,0.4539576807060431,0.4343699520643153,0.7888248117916626,840.5128205128206,784.1025641025641,728.4981684981685,848.1684981684982,793.7728937728938,-0.589905,-0.028870,0.804932,-0.246735,2.347717,-2.474823,1,1,1,2,1,50.000000
2023-09-13 16:42:21.223,1.386455138850301,0.9133070553772011,0.7919430666448543,1.31510746805073,0.9033393499581821,0.1661106983711654,1.102225848582996,1.050055045612241,0.8320674736357648,-0.03497431927547136,0.4966760416430834,1.131543636185978,0.6753943479888895,0.5745586588574054,0.5507603022363787,0.7972828093083858,0.3041987170717034,0.4539576807060431,0.4343699520643153,0.7888248117916626,828.021978021978,720.8424908424909,1349.010989010989,801.8315018315019,811.9047619047619,-0.400391,-0.160339,0.867981,-16.374207,-8.366547,31.208191,1,2,1,4,2,50.000000
2023-09-13 16:42:22.223,1.386455138850301,0.9133070553772011,0.7919430666448543,1.31510746805073,0.9033393499581821,0.1661106983711654,1.102225848582996,1.050055045612241,0.8320674736357648,-0.03497431927547136,0.4966760416430834,1.131543636185978,0.6753943479888895,0.5745586588574054,0.5507603022363787,0.7972828093083858,0.3041987170717034,0.4539576807060431,0.4343699520643153,0.7888248117916626,747.8388278388279,790.5494505494506,868.7179487179487,768.7912087912088,799.0109890109891,-0.629700,-0.008789,0.766663,-1.383209,-2.624359,-0.119629,1,2,1,4,2,50.000000
2023-09-13 16:42:23.223,1.386455138850301,0.9133070553772011,0.7919430666448543,1.31510746805073,0.9033393499581821,0.1661106983711654,1.102225848582996,1.050055045612241,0.8320674736357648,-0.03497431927547136,0.4966760416430834,1.131543636185978,0.6753943479888895,0.5745586588574054,0.5507603022363787,0.7972828093083858,0.3041987170717034,0.4539576807060431,0.4343699520643153,0.7888248117916626,749.8534798534798,758.3150183150184,767.5824175824176,748.2417582417582,691.4285714285714,-0.597900,-0.036804,0.794800,0.979462,-4.852448,-3.259888,1,2,1,1,2,50.000000
2023-09-13 16:42:24.223,0.667239979228355,0.5957890271072308,0.7919430666448543,1.31510746805073,0.2948194178497129,-0.2772755378044544,1.102225848582996,1.050055045612241,0.4576799391147947,0.05257185114199295,0.4966760416430834,1.131543636185978,0.5932744549740641,0.7914224929512275,0.5507603022363787,0.7972828093083858,0.2781953413040519,0.5318847290115547,0.4343699520643153,0.7888248117916626,728.4981684981685,1005.311355311355,1625.018315018315,672.893772893773,724.0659340659341,-0.313293,0.014221,0.945740,14.108734,30.281067,-42.468262,1,1,1,4,1,50.000000
2023-09-13 16:42:25.229,0.6577532731042377,0.4604827404017472,0.7919430666448543,1.31510746805073,0.2391182998402037,-0.2687902059433065,1.102225848582996,1.050055045612241,0.4341977751447537,-0.09806883460172611,0.4966760416430834,1.131543636185978,0.5602379639362941,0.8061206280839259,0.5507603022363787,0.7972828093083858,0.2836986567189688,0.5700261886501985,0.4343699520643153,0.7888248117916626,805.8608058608058,716.4102564102565,627.3626373626374,815.1282051282052,730.9157509157509,-0.420166,-0.168579,0.883972,5.203857,-8.635712,-12.837677,1,1,1,2,1,50.000000
2023-09-13 16:42:26.223,0.6577532731042377,0.4604827404017472,0.7919430666448543,1.31510746805073,0.2391182998402037,-0.2687902059433065,1.102225848582996,1.050055045612241,0.4341977751447537,-0.09806883460172611,0.4966760416430834,1.131543636185978,0.5602379639362941,0.8061206280839259,0.5507603022363787,0.7972828093083858,0.2836986567189688,0.5700261886501985,0.4343699520643153,0.7888248117916626,791.7582417582418,815.1282051282052,989.5970695970697,834.0659340659341,684.1758241758242,-0.257446,0.171875,0.972656,5.570221,0.471039,-8.583374,1,1,1,4,1,50.000000
2023-09-13 16:42:27.230,0.6577532731042377,0.4604827404017472,0.7919430666448543,1.31510746805073,0.2391182998402037,-0.2687902059433065,1.102225848582996,1.050055045612241,0.4341977751447537,-0.09806883460172611,0.4966760416430834,1.131543636185978,0.5602379639362941,0.8061206280839259,0.5507603022363787,0.7972828093083858,0.2836986567189688,0.5700261886501985,0.4343699520643153,0.7888248117916626,908.2051282051282,844.9450549450549,704.7252747252747,908.6080586080586,772.014652014652,-0.212891,0.144836,0.950073,2.676697,-10.856323,13.891907,1,2,1,2,2,50.000000
2023-09-13 16:42:27.667,,,,,,,,,,,,,,,,,,,,,,,,,,,,,,,,,,,,,,/muse/elements/blink
2023-09-13 16:42:28.223,0.6577532731042377,0.4604827404017472,0.7919430666448543,1.31510746805073,0.2391182998402037,-0.2687902059433065,1.102225848582996,1.050055045612241,0.4341977751447537,-0.09806883460172611,0.4966760416430834,1.131543636185978,0.5602379639362941,0.8061206280839259,0.5507603022363787,0.7972828093083858,0.2836986567189688,0.5700261886501985,0.4343699520643153,0.7888248117916626,834.0659340659341,792.967032967033,999.6703296703297,822.3809523809524,669.2673992673992,0.202087,0.022339,0.972961,3.289795,3.454285,-2.811279,1,2,1,4,2,50.000000
2023-09-13 16:42:28.809,,,,,,,,,,,,,,,,,,,,,,,,,,,,,,,,,,,,,,/muse/elements/jaw_clench
2023-09-13 16:42:28.881,,,,,,,,,,,,,,,,,,,,,,,,,,,,,,,,,,,,,,/muse/elements/blink
2023-09-13 16:42:29.229,0.6577532731042377,0.4604827404017472,0.7919430666448543,1.31510746805073,0.2391182998402037,-0.2687902059433065,1.102225848582996,1.050055045612241,0.4341977751447537,-0.09806883460172611,0.4966760416430834,1.131543636185978,0.5602379639362941,0.8061206280839259,0.5507603022363787,0.7972828093083858,0.2836986567189688,0.5700261886501985,0.4343699520643153,0.7888248117916626,744.6153846153846,752.2710622710623,573.7728937728938,735.7509157509157,806.6666666666667,-0.424316,0.012207,0.895935,7.132874,2.534637,-16.994781,1,2,1,4,2,50.000000
2023-09-13 16:42:29.735,,,,,,,,,,,,,,,,,,,,,,,,,,,,,,,,,,,,,,/muse/elements/jaw_clench
2023-09-13 16:42:29.914,,,,,,,,,,,,,,,,,,,,,,,,,,,,,,,,,,,,,,/muse/elements/blink
2023-09-13 16:42:30.223,0.6577532731042377,0.4604827404017472,0.7919430666448543,1.31510746805073,0.2391182998402037,-0.2687902059433065,1.102225848582996,1.050055045612241,0.4341977751447537,-0.09806883460172611,0.4966760416430834,1.131543636185978,0.5602379639362941,0.8061206280839259,0.5507603022363787,0.7972828093083858,0.2836986567189688,0.5700261886501985,0.4343699520643153,0.7888248117916626,666.8498168498169,749.4505494505495,857.032967032967,722.4542124542124,755.4945054945055,0.141418,0.101013,0.974121,1.899109,-20.591125,-1.495361,1,2,1,4,2,50.000000
2023-09-13 16:42:30.518,,,,,,,,,,,,,,,,,,,,,,,,,,,,,,,,,,,,,,/muse/elements/jaw_clench
2023-09-13 16:42:31.223,0.6577532731042377,0.4604827404017472,0.7919430666448543,1.31510746805073,0.2391182998402037,-0.2687902059433065,1.102225848582996,1.050055045612241,0.4341977751447537,-0.09806883460172611,0.4966760416430834,1.131543636185978,0.5602379639362941,0.8061206280839259,0.5507603022363787,0.7972828093083858,0.2836986567189688,0.5700261886501985,0.4343699520643153,0.7888248117916626,873.5531135531136,782.893772893773,1434.432234432235,886.0439560439561,675.3113553113553,0.210022,0.084167,0.944763,2.953339,-12.590942,22.445374,1,2,1,4,2,50.000000
2023-09-13 16:42:32.223,0.6577532731042377,0.4604827404017472,0.7919430666448543,1.31510746805073,0.2391182998402037,-0.2687902059433065,1.102225848582996,1.050055045612241,0.4341977751447537,-0.09806883460172611,0.4966760416430834,1.131543636185978,0.5602379639362941,0.8061206280839259,0.5507603022363787,0.7972828093083858,0.2836986567189688,0.5700261886501985,0.4343699520643153,0.7888248117916626,831.6483516483516,767.5824175824176,750.6593406593407,822.3809523809524,714.3956043956044,0.211487,0.126892,0.956909,-0.844879,-4.344025,8.762817,1,2,1,2,2,50.000000
2023-09-13 16:42:33.223,0.6577532731042377,0.4604827404017472,0.7919430666448543,1.31510746805073,0.2391182998402037,-0.2687902059433065,1.102225848582996,1.050055045612241,0.4341977751447537,-0.09806883460172611,0.4966760416430834,1.131543636185978,0.5602379639362941,0.8061206280839259,0.5507603022363787,0.7972828093083858,0.2836986567189688,0.5700261886501985,0.4343699520643153,0.7888248117916626,751.8681318681319,786.5201465201466,784.5054945054945,762.3443223443223,793.3699633699634,0.162537,0.142944,0.957397,0.814972,-0.717773,-0.403748,1,2,1,4,2,50.000000
2023-09-13 16:42:34.223,0.6577532731042377,0.4604827404017472,0.7919430666448543,1.31510746805073,0.2391182998402037,-0.2687902059433065,1.102225848582996,1.050055045612241,0.4341977751447537,-0.09806883460172611,0.4966760416430834,1.131543636185978,0.5602379639362941,0.8061206280839259,0.5507603022363787,0.7972828093083858,0.2836986567189688,0.5700261886501985,0.4343699520643153,0.7888248117916626,807.4725274725275,785.7142857142858,767.5824175824176,784.9084249084249,709.1575091575091,0.091675,0.147888,0.969543,0.530853,-14.303131,10.721741,1,2,1,4,2,50.000000
2023-09-13 16:42:34.981,,,,,,,,,,,,,,,,,,,,,,,,,,,,,,,,,,,,,,/muse/elements/blink
2023-09-13 16:42:35.207,,,,,,,,,,,,,,,,,,,,,,,,,,,,,,,,,,,,,,/muse/elements/jaw_clench
2023-09-13 16:42:35.223,0.6577532731042377,0.4604827404017472,0.7919430666448543,1.31510746805073,0.2391182998402037,-0.2687902059433065,1.102225848582996,1.050055045612241,0.4341977751447537,-0.09806883460172611,0.4966760416430834,1.131543636185978,0.5602379639362941,0.8061206280839259,0.5507603022363787,0.7972828093083858,0.2836986567189688,0.5700261886501985,0.4343699520643153,0.7888248117916626,750.6593406593407,941.6483516483516,457.3260073260074,765.5677655677656,699.0842490842491,-0.349182,0.137756,0.904480,-5.525360,15.880737,-25.623016,1,2,1,4,2,50.000000
2023-09-13 16:42:35.320,,,,,,,,,,,,,,,,,,,,,,,,,,,,,,,,,,,,,,/muse/elements/blink
2023-09-13 16:42:36.223,0.6577532731042377,0.4604827404017472,0.7919430666448543,1.31510746805073,0.2391182998402037,-0.2687902059433065,1.102225848582996,1.050055045612241,0.4341977751447537,-0.09806883460172611,0.4966760416430834,1.131543636185978,0.5602379639362941,0.8061206280839259,0.5507603022363787,0.7972828093083858,0.2836986567189688,0.5700261886501985,0.4343699520643153,0.7888248117916626,768.3882783882784,779.6703296703297,751.4652014652015,751.8681318681319,805.4578754578755,-0.610535,0.033264,0.790710,5.009460,-0.097198,-5.233765,1,2,1,4,2,50.000000
2023-09-13 16:42:37.222,1.484708746234563,0.4604827404017472,0.7919430666448543,1.31510746805073,1.282644694751383,-0.2687902059433065,1.102225848582996,1.050055045612241,1.216427789588566,-0.09806883460172611,0.4966760416430834,1.131543636185978,0.7455618003941544,0.8061206280839259,0.5507603022363787,0.7972828093083858,0.2798148920874527,0.5700261886501985,0.4343699520643153,0.7888248117916626,794.5787545787546,782.0879120879121,932.3809523809524,859.4505494505495,724.4688644688645,-0.365906,0.127014,0.880615,-8.112335,-7.798309,3.125305,1,1,1,4,1,50.000000
2023-09-13 16:42:38.230,1.451975724941295,0.4604827404017472,0.7919430666448543,1.31510746805073,1.24873143445223,-0.2687902059433065,1.102225848582996,1.050055045612241,1.216427789588566,-0.09806883460172611,0.4966760416430834,1.131543636185978,0.7183329713399925,0.8061206280839259,0.5507603022363787,0.7972828093083858,0.3759171362437079,0.5700261886501985,0.4343699520643153,0.7888248117916626,886.0439560439561,410.989010989011,166.8131868131868,855.8241758241759,785.7142857142858,0.037537,0.050720,1.011780,9.876862,-36.920471,-70.775452,1,1,1,2,1,50.000000
2023-09-13 16:42:38.265,,,,,,,,,,,,,,,,,,,,,,,,,,,,,,,,,,,,,,/muse/elements/blink
2023-09-13 16:42:39.223,1.522571608766388,0.4604827404017472,0.7919430666448543,1.31510746805073,1.364897591800848,-0.2687902059433065,1.102225848582996,1.050055045612241,1.18669347552007,-0.09806883460172611,0.4966760416430834,1.131543636185978,0.6378969501199352,0.8061206280839259,0.5507603022363787,0.7972828093083858,0.3586292070574941,0.5700261886501985,0.4343699520643153,0.7888248117916626,812.3076923076924,774.8351648351648,799.0109890109891,832.0512820512821,765.9706959706959,-0.152161,-0.062439,0.977966,-0.508423,-3.050537,3.379517,1,1,1,4,1,50.000000
2023-09-13 16:42:40.228,1.522571608766388,0.4604827404017472,0.7919430666448543,1.31510746805073,1.364897591800848,-0.2687902059433065,1.102225848582996,1.050055045612241,1.18669347552007,-0.09806883460172611,0.4966760416430834,1.131543636185978,0.6378969501199352,0.8061206280839259,0.5507603022363787,0.7972828093083858,0.3586292070574941,0.5700261886501985,0.4343699520643153,0.7888248117916626,833.2600732600733,799.0109890109891,740.5860805860806,826.007326007326,740.5860805860806,-0.122375,-0.075928,0.976746,3.282318,-3.177643,6.265564,1,2,1,4,2,50.000000
2023-09-13 16:42:41.223,1.522571608766388,0.4604827404017472,0.7919430666448543,1.31510746805073,1.364897591800848,-0.2687902059433065,1.102225848582996,1.050055045612241,1.18669347552007,-0.09806883460172611,0.4966760416430834,1.131543636185978,0.6378969501199352,0.8061206280839259,0.5507603022363787,0.7972828093083858,0.3586292070574941,0.5700261886501985,0.4343699520643153,0.7888248117916626,784.9084249084249,731.7216117216118,855.8241758241759,793.3699633699634,851.3919413919414,-0.138000,-0.052612,0.972656,0.171967,-3.357086,-0.082245,1,2,1,1,2,50.000000
2023-09-13 16:42:42.223,1.14473703013137,0.4604827404017472,0.7919430666448543,1.028413525955224,0.4743411430261757,-0.2687902059433065,1.102225848582996,0.4193111807882565,0.8382215846907652,-0.09806883460172611,0.4966760416430834,0.5837521277855878,0.672708825108227,0.8061206280839259,0.5507603022363787,0.9318434222970041,0.1954366862730476,0.5700261886501985,0.4343699520643153,0.6399014328766167,817.948717948718,766.7765567765568,726.4835164835165,824.3956043956044,997.6556776556777,-0.161316,-0.085938,0.967346,7.102966,-2.205658,1.495361,1,1,1,1,1,50.000000
2023-09-13 16:42:43.223,0.9711175957793978,0.4604827404017472,0.7919430666448543,1.028413525955224,0.37424175979603,-0.2687902059433065,1.102225848582996,0.4193111807882565,0.7881548795362049,-0.09806883460172611,0.4966760416430834,0.5837521277855878,0.6998907409679415,0.8061206280839259,0.5507603022363787,0.9318434222970041,0.2551551741303874,0.5700261886501985,0.4343699520643153,0.6399014328766167,832.0512820512821,742.1978021978023,762.3443223443223,808.2783882783883,711.5750915750916,-0.088135,-0.132080,0.976990,2.317810,0.343933,-0.515900,1,1,1,1,1,50.000000
2023-09-13 16:42:44.223,1.006801288794524,1.530416764754335,0.7919430666448543,1.028413525955224,0.3672369674732942,1.255564175943413,1.102225848582996,0.4193111807882565,0.7789188008190234,0.9120743331102751,0.4966760416430834,0.5837521277855878,0.7284443955224218,0.5526256281624343,0.5507603022363787,0.9318434222970041,0.3045912212276493,-0.05261361891453299,0.4343699520643153,0.6399014328766167,732.5274725274726,774.0293040293041,827.6190476190476,726.8864468864469,745.8241758241759,-0.146912,-0.106628,0.965454,2.310333,-2.542114,-0.112152,1,1,1,1,1,55.000000
2023-09-13 16:42:45.223,0.944763511192813,1.173990671563861,0.7919430666448543,1.028413525955224,0.3645425990563625,0.780789019361273,1.102225848582996,0.4193111807882565,0.5441310191020161,0.889897672253498,0.4966760416430834,0.5837521277855878,0.5874201816256469,0.2990908043621504,0.5507603022363787,0.9318434222970041,0.209573687689969,-0.1786405802217094,0.4343699520643153,0.6399014328766167,807.4725274725275,798.6080586080586,753.4798534798535,801.025641025641,738.5714285714286,-0.099609,-0.088196,0.975525,6.093597,-4.134674,1.727142,1,1,1,1,1,55.000000
2023-09-13 16:42:46.233,0.944763511192813,0.8164942026306992,0.7919430666448543,1.028413525955224,0.3645425990563625,0.1409151786539328,1.102225848582996,0.4193111807882565,0.5441310191020161,0.3729684381638879,0.4966760416430834,0.5837521277855878,0.5874201816256469,0.1200498959102932,0.5507603022363787,0.9318434222970041,0.209573687689969,-0.340239137652844,0.4343699520643153,0.6399014328766167,757.5091575091575,846.5567765567765,646.7032967032967,746.2271062271062,685.7875457875458,-0.178894,0.142944,0.956604,4.538422,1.383209,19.409790,1,1,1,1,1,55.000000
2023-09-13 16:42:47.228,0.944763511192813,0.8739086591190094,0.7919430666448543,1.028413525955224,0.3645425990563625,0.2232801010963044,1.102225848582996,0.4193111807882565,0.5441310191020161,0.2503884228147643,0.4966760416430834,0.5837521277855878,0.5874201816256469,0.172325955488731,0.5507603022363787,0.9318434222970041,0.209573687689969,-0.3818666874869057,0.4343699520643153,0.6399014328766167,822.7838827838829,707.5457875457876,1243.443223443224,801.025641025641,887.2527472527473,0.165039,0.078918,0.967102,0.657959,-18.318176,2.198181,1,1,1,4,1,55.000000
2023-09-13 16:42:48.225,0.944763511192813,0.8739086591190094,0.7919430666448543,1.028413525955224,0.3645425990563625,0.2232801010963044,1.102225848582996,0.4193111807882565,0.5441310191020161,0.2503884228147643,0.4966760416430834,0.5837521277855878,0.5874201816256469,0.172325955488731,0.5507603022363787,0.9318434222970041,0.209573687689969,-0.3818666874869057,0.4343699520643153,0.6399014328766167,699.4871794871796,1214.835164835165,1625.421245421245,669.6703296703297,728.0952380952381,0.225708,0.094360,0.924927,-17.114410,57.324677,48.113251,1,2,1,4,2,55.000000
2023-09-13 16:42:48.526,,,,,,,,,,,,,,,,,,,,,,,,,,,,,,,,,,,,,,/muse/elements/jaw_clench
2023-09-13 16:42:49.223,0.944763511192813,0.8739086591190094,0.7919430666448543,1.028413525955224,0.3645425990563625,0.2232801010963044,1.102225848582996,0.4193111807882565,0.5441310191020161,0.2503884228147643,0.4966760416430834,0.5837521277855878,0.5874201816256469,0.172325955488731,0.5507603022363787,0.9318434222970041,0.209573687689969,-0.3818666874869057,0.4343699520643153,0.6399014328766167,780.4761904761905,620.9157509157509,450.8791208791209,781.2820512820513,640.2564102564103,0.163269,0.062134,0.971313,6.467438,-10.818939,8.321686,1,2,2,4,2,55.000000
2023-09-13 16:42:49.834,,,,,,,,,,,,,,,,,,,,,,,,,,,,,,,,,,,,,,/muse/elements/blink
2023-09-13 16:42:50.011,,,,,,,,,,,,,,,,,,,,,,,,,,,,,,,,,,,,,,/muse/elements/jaw_clench
2023-09-13 16:42:50.223,0.944763511192813,0.8739086591190094,0.7919430666448543,1.028413525955224,0.3645425990563625,0.2232801010963044,1.102225848582996,0.4193111807882565,0.5441310191020161,0.2503884228147643,0.4966760416430834,0.5837521277855878,0.5874201816256469,0.172325955488731,0.5507603022363787,0.9318434222970041,0.209573687689969,-0.3818666874869057,0.4343699520643153,0.6399014328766167,794.5787545787546,954.1391941391942,811.0989010989011,846.959706959707,699.0842490842491,-0.422302,0.016541,0.883789,0.022430,12.949829,-6.116028,1,2,2,4,2,55.000000
2023-09-13 16:42:51.223,0.944763511192813,0.8739086591190094,0.7919430666448543,1.028413525955224,0.3645425990563625,0.2232801010963044,1.102225848582996,0.4193111807882565,0.5441310191020161,0.2503884228147643,0.4966760416430834,0.5837521277855878,0.5874201816256469,0.172325955488731,0.5507603022363787,0.9318434222970041,0.209573687689969,-0.3818666874869057,0.4343699520643153,0.6399014328766167,825.2014652014652,677.3260073260074,60.03663003663004,809.4871794871796,712.7838827838829,-0.447021,0.047058,0.860291,2.026215,-0.149536,-10.071259,1,2,1,4,2,55.000000
2023-09-13 16:42:52.223,0.944763511192813,0.8739086591190094,0.7919430666448543,1.028413525955224,0.3645425990563625,0.2232801010963044,1.102225848582996,0.4193111807882565,0.5441310191020161,0.2503884228147643,0.4966760416430834,0.5837521277855878,0.5874201816256469,0.172325955488731,0.5507603022363787,0.9318434222970041,0.209573687689969,-0.3818666874869057,0.4343699520643153,0.6399014328766167,803.4432234432235,617.2893772893773,595.5311355311355,845.7509157509157,575.3846153846154,-0.126831,-0.133240,0.966003,-19.297638,-17.637787,-11.514282,1,2,1,2,2,55.000000
2023-09-13 16:42:53.222,0.944763511192813,0.8739086591190094,0.7919430666448543,1.028413525955224,0.3645425990563625,0.2232801010963044,1.102225848582996,0.4193111807882565,0.5441310191020161,0.2503884228147643,0.4966760416430834,0.5837521277855878,0.5874201816256469,0.172325955488731,0.5507603022363787,0.9318434222970041,0.209573687689969,-0.3818666874869057,0.4343699520643153,0.6399014328766167,787.3260073260074,770,667.6556776556777,792.1611721611722,725.6776556776557,-0.167053,-0.089478,0.962402,3.364563,-9.144135,-0.964508,1,2,1,1,2,55.000000
2023-09-13 16:42:54.222,0.7607649653348663,0.8739086591190094,0.7919430666448543,0.5839203977104225,0.4772596929986836,0.2232801010963044,1.102225848582996,0.6059074961026988,0.7369358853886062,0.2503884228147643,0.4966760416430834,1.306804440438981,0.3327681703100728,0.172325955488731,0.5507603022363787,0.8326469477348554,0.1982516319148554,-0.3818666874869057,0.4343699520643153,0.6368462746643272,793.7728937728938,781.6849816849817,792.5641025641025,795.7875457875458,736.5567765567765,-0.242920,-0.069519,0.949890,1.248627,3.955231,2.646790,1,1,1,4,1,55.000000
2023-09-13 16:42:54.650,,,,,,,,,,,,,,,,,,,,,,,,,,,,,,,,,,,,,,/muse/elements/jaw_clench
2023-09-13 16:42:54.920,,,,,,,,,,,,,,,,,,,,,,,,,,,,,,,,,,,,,,/muse/elements/blink
2023-09-13 16:42:55.222,0.7567299664562659,0.8739086591190094,0.7919430666448543,0.7042749768053761,0.5050624281187419,0.2232801010963044,1.102225848582996,0.6396145938497989,0.7369358853886062,0.2503884228147643,0.4966760416430834,1.259218584368947,0.4389322551795928,0.172325955488731,0.5507603022363787,0.8130597178971261,0.2002900474613318,-0.3818666874869057,0.4343699520643153,0.6005538532852297,708.3516483516484,1045.201465201465,1316.776556776557,636.2271062271062,712.7838827838829,-0.076538,0.072937,0.951294,1.532745,1.308441,-11.432037,1,1,1,2,1,55.000000
2023-09-13 16:42:55.233,,,,,,,,,,,,,,,,,,,,,,,,,,,,,,,,,,,,,,/muse/elements/jaw_clench
2023-09-13 16:42:55.608,,,,,,,,,,,,,,,,,,,,,,,,,,,,,,,,,,,,,,/muse/elements/blink
2023-09-13 16:42:56.224,0.7888249052341257,0.8739086591190094,0.7919430666448543,0.8754177956468218,0.5603905198724238,0.2232801010963044,1.102225848582996,0.736856268692521,0.6395493692985281,0.2503884228147643,0.4966760416430834,1.066832314232321,0.5753014744975299,0.172325955488731,0.5507603022363787,0.8175594645541444,0.2051185104146735,-0.3818666874869057,0.4343699520643153,0.5488024799229057,845.7509157509157,531.8681318681319,0,950.1098901098901,892.4908424908425,-0.540222,-0.143066,0.855957,-0.343933,-10.669403,-5.301056,1,1,1,4,1,55.000000
2023-09-13 16:42:56.564,,,,,,,,,,,,,,,,,,,,,,,,,,,,,,,,,,,,,,/muse/elements/blink
2023-09-13 16:42:56.834,,,,,,,,,,,,,,,,,,,,,,,,,,,,,,,,,,,,,,/muse/elements/blink
2023-09-13 16:42:57.222,0.7888249052341257,0.8739086591190094,0.7919430666448543,0.8754177956468218,0.5603905198724238,0.2232801010963044,1.102225848582996,0.736856268692521,0.6395493692985281,0.2503884228147643,0.4966760416430834,1.066832314232321,0.5753014744975299,0.172325955488731,0.5507603022363787,0.8175594645541444,0.2051185104146735,-0.3818666874869057,0.4343699520643153,0.5488024799229057,757.9120879120879,674.1025641025641,917.0695970695971,825.6043956043957,832.8571428571429,0.262207,0.127380,0.964294,-7.387085,4.261780,-11.499329,1,2,4,4,2,55.000000
2023-09-13 16:42:57.676,,,,,,,,,,,,,,,,,,,,,,,,,,,,,,,,,,,,,,/muse/elements/jaw_clench
2023-09-13 16:42:57.789,,,,,,,,,,,,,,,,,,,,,,,,,,,,,,,,,,,,,,/muse/elements/blink
2023-09-13 16:42:58.226,0.7888249052341257,0.8739086591190094,0.7919430666448543,0.8754177956468218,0.5603905198724238,0.2232801010963044,1.102225848582996,0.736856268692521,0.6395493692985281,0.2503884228147643,0.4966760416430834,1.066832314232321,0.5753014744975299,0.172325955488731,0.5507603022363787,0.8175594645541444,0.2051185104146735,-0.3818666874869057,0.4343699520643153,0.5488024799229057,819.1575091575091,659.1941391941392,0,887.6556776556777,731.7216117216118,-0.287354,-0.131104,0.947144,-3.902893,-5.929108,-4.388885,1,2,4,4,2,55.000000
2023-09-13 16:42:59.230,0.7888249052341257,0.8739086591190094,0.7919430666448543,0.8754177956468218,0.5603905198724238,0.2232801010963044,1.102225848582996,0.736856268692521,0.6395493692985281,0.2503884228147643,0.4966760416430834,1.066832314232321,0.5753014744975299,0.172325955488731,0.5507603022363787,0.8175594645541444,0.2051185104146735,-0.3818666874869057,0.4343699520643153,0.5488024799229057,794.1758241758242,527.8388278388279,172.4542124542125,820.3663003663004,809.4871794871796,-0.182922,-0.303955,0.931335,-2.893524,-3.783264,0.560760,1,2,2,2,2,55.000000
2023-09-13 16:43:00.222,1.126722223510387,0.8739086591190094,0.7919430666448543,0.8754177956468218,0.4483453609147976,0.2232801010963044,1.102225848582996,0.736856268692521,0.5332876793867902,0.2503884228147643,0.4966760416430834,1.066832314232321,0.4494954438416217,0.172325955488731,0.5507603022363787,0.8175594645541444,0.2653775378111126,-0.3818666874869057,0.4343699520643153,0.5488024799229057,771.6117216117216,796.5934065934066,793.7728937728938,770.4029304029305,777.6556776556777,-0.369446,-0.090088,0.936279,12.493744,3.117828,-0.957031,1,2,1,2,2,55.000000
2023-09-13 16:43:00.498,,,,,,,,,,,,,,,,,,,,,,,,,,,,,,,,,,,,,,/muse/elements/blink
2023-09-13 16:43:00.999,,,,,,,,,,,,,,,,,,,,,,,,,,,,,,,,,,,,,,/muse/elements/blink
2023-09-13 16:43:01.222,1.126722223510387,0.8739086591190094,0.7919430666448543,0.8754177956468218,0.4483453609147976,0.2232801010963044,1.102225848582996,0.736856268692521,0.5332876793867902,0.2503884228147643,0.4966760416430834,1.066832314232321,0.4494954438416217,0.172325955488731,0.5507603022363787,0.8175594645541444,0.2653775378111126,-0.3818666874869057,0.4343699520643153,0.5488024799229057,882.8205128205128,832.8571428571429,830.8424908424909,900.1465201465202,730.1098901098901,0.334412,0.072815,0.925415,-2.018738,7.940369,14.549866,1,1,2,4,1,55.000000
2023-09-13 16:43:01.514,,,,,,,,,,,,,,,,,,,,,,,,,,,,,,,,,,,,,,/muse/elements/jaw_clench
2023-09-13 16:43:01.607,,,,,,,,,,,,,,,,,,,,,,,,,,,,,,,,,,,,,,/muse/elements/blink
2023-09-13 16:43:02.223,1.126722223510387,0.8739086591190094,0.7919430666448543,0.8754177956468218,0.4483453609147976,0.2232801010963044,1.102225848582996,0.736856268692521,0.5332876793867902,0.2503884228147643,0.4966760416430834,1.066832314232321,0.4494954438416217,0.172325955488731,0.5507603022363787,0.8175594645541444,0.2653775378111126,-0.3818666874869057,0.4343699520643153,0.5488024799229057,788.1318681318681,518.1684981684982,499.6336996336996,852.6007326007326,955.7509157509157,-0.491150,-0.059998,0.813110,7.499237,-8.635712,-6.370239,1,1,2,4,1,55.000000
2023-09-13 16:43:03.224,1.126722223510387,0.8739086591190094,0.7919430666448543,0.8754177956468218,0.4483453609147976,0.2232801010963044,1.102225848582996,0.736856268692521,0.5332876793867902,0.2503884228147643,0.4966760416430834,1.066832314232321,0.4494954438416217,0.172325955488731,0.5507603022363787,0.8175594645541444,0.2653775378111126,-0.3818666874869057,0.4343699520643153,0.5488024799229057,716.007326007326,750.6593406593407,730.1098901098901,723.2600732600732,754.6886446886447,-0.448181,0.015869,0.877441,2.086029,-14.617157,0.478516,1,2,1,1,2,55.000000
2023-09-13 16:43:04.133,,,,,,,,,,,,,,,,,,,,,,,,,,,,,,,,,,,,,,/muse/elements/jaw_clench
2023-09-13 16:43:04.234,1.126722223510387,0.8739086591190094,0.7919430666448543,0.8754177956468218,0.4483453609147976,0.2232801010963044,1.102225848582996,0.736856268692521,0.5332876793867902,0.2503884228147643,0.4966760416430834,1.066832314232321,0.4494954438416217,0.172325955488731,0.5507603022363787,0.8175594645541444,0.2653775378111126,-0.3818666874869057,0.4343699520643153,0.5488024799229057,736.959706959707,768.3882783882784,0,786.1172161172161,653.1501831501831,-0.184814,-0.072998,0.948914,-8.897400,24.980011,28.090363,1,2,1,2,2,55.000000
2023-09-13 16:43:05.225,1.126722223510387,0.8739086591190094,0.7919430666448543,0.8754177956468218,0.4483453609147976,0.2232801010963044,1.102225848582996,0.736856268692521,0.5332876793867902,0.2503884228147643,0.4966760416430834,1.066832314232321,0.4494954438416217,0.172325955488731,0.5507603022363787,0.8175594645541444,0.2653775378111126,-0.3818666874869057,0.4343699520643153,0.5488024799229057,780.8791208791209,767.985347985348,697.0695970695971,813.919413919414,768.3882783882784,-0.207092,0.169739,0.926941,2.863617,1.487885,-0.485992,1,2,1,2,2,55.000000
2023-09-13 16:43:06.222,0.7508615810671111,0.9425861060688392,0.7919430666448543,0.9578361351310503,0.7458650782258393,0.3814885454926662,1.102225848582996,0.5753594522589828,1.125883828611842,0.6358457530221673,0.4966760416430834,0.2963517683440844,1.208731617315666,0.2031299769087472,0.5507603022363787,0.5221071770608277,1.160385587152625,-0.1569508241475832,0.4343699520643153,0.139454743124864,786.5201465201466,776.0439560439561,798.6080586080586,783.6996336996338,733.7362637362637,-0.212158,0.168274,0.934875,-1.981354,-6.445007,3.932800,1,1,1,1,1,55.000000
2023-09-13 16:43:07.222,0.6149415527981741,0.8476214656257409,0.7919430666448543,0.7160694255465273,0.4877278180473165,0.3579110659379563,1.102225848582996,0.4991208229969679,1.358562033051529,0.5826944408247576,0.4966760416430834,0.6097193976560622,1.152565766910045,-0.004461593010838148,0.5507603022363787,0.5215249455705159,1.060855855588189,-0.2269149390767504,0.4343699520643153,0.1330627584895618,779.2673992673992,774.8351648351648,834.8717948717949,815.934065934066,786.1172161172161,-0.201233,0.118225,0.922363,-5.278625,14.594727,-10.220795,1,1,1,1,1,55.000000
2023-09-13 16:43:08.222,0.7859138527940628,0.5151893124427642,0.7919430666448543,1.077725565213442,0.3561748629091572,0.008151435349405297,1.102225848582996,0.4691481528146562,1.301012335250899,0.4701011045447487,0.4966760416430834,0.636550084188739,1.006407663405185,0.09822913534871582,0.5507603022363787,0.4944927984932402,0.8807489870318947,-0.2509463155300727,0.4343699520643153,0.2745668273778117,922.7106227106227,886.4468864468864,946.0805860805862,861.0622710622711,750.2564102564103,-0.228882,0.026489,0.933533,-1.076660,-6.011353,-5.360870,1,1,1,1,1,55.000000
2023-09-13 16:43:09.221,0.8841126341959782,0.6543963629476951,0.7919430666448543,1.34672985300037,0.4997385293729315,0.05137789065531553,1.102225848582996,0.6230634842797843,1.238173208077517,-0.05104539267993702,0.4966760416430834,0.4675281271769146,0.8868484744058962,0.2241362157446508,0.5507603022363787,0.5085578059749508,0.7047365046462936,-0.2043011121986204,0.4343699520643153,0.4279240971384797,733.7362637362637,796.5934065934066,755.4945054945055,764.3589743589744,707.5457875457876,-0.261169,-0.052551,0.948914,0.702820,-8.463745,1.181335,1,1,1,1,1,55.000000
2023-09-13 16:43:10.222,0.8841126341959782,0.667609970196532,0.7919430666448543,1.34672985300037,0.4997385293729315,0.03696543133979444,1.102225848582996,0.6230634842797843,1.238173208077517,-0.1947871876634144,0.4966760416430834,0.4675281271769146,0.8868484744058962,0.1564055671818801,0.5507603022363787,0.5085578059749508,0.7047365046462936,-0.1923596552208962,0.4343699520643153,0.4279240971384797,718.8278388278388,795.7875457875458,804.2490842490843,725.2747252747253,723.6630036630037,-0.312500,-0.098083,0.914001,11.110535,-2.018738,-25.757599,1,1,1,1,1,55.000000
2023-09-13 16:43:11.222,0.8841126341959782,0.667609970196532,0.7919430666448543,1.34672985300037,0.4997385293729315,0.03696543133979444,1.102225848582996,0.6230634842797843,1.238173208077517,-0.1947871876634144,0.4966760416430834,0.4675281271769146,0.8868484744058962,0.1564055671818801,0.5507603022363787,0.5085578059749508,0.7047365046462936,-0.1923596552208962,0.4343699520643153,0.4279240971384797,773.2234432234433,801.8315018315019,775.2380952380953,810.2930402930403,897.7289377289378,-0.245300,0.011169,0.954163,2.923431,-8.860016,11.327362,1,2,1,1,2,55.000000
2023-09-13 16:43:12.222,0.8841126341959782,0.667609970196532,0.7919430666448543,1.34672985300037,0.4997385293729315,0.03696543133979444,1.102225848582996,0.6230634842797843,1.238173208077517,-0.1947871876634144,0.4966760416430834,0.4675281271769146,0.8868484744058962,0.1564055671818801,0.5507603022363787,0.5085578059749508,0.7047365046462936,-0.1923596552208962,0.4343699520643153,0.4279240971384797,811.5018315018315,785.3113553113553,783.6996336996338,803.4432234432235,705.5311355311355,-0.308838,0.001770,0.933472,8.142242,-1.428070,3.274841,1,2,1,1,2,55.000000
2023-09-13 16:43:13.222,0.8841126341959782,0.667609970196532,0.7919430666448543,1.34672985300037,0.4997385293729315,0.03696543133979444,1.102225848582996,0.6230634842797843,1.238173208077517,-0.1947871876634144,0.4966760416430834,0.4675281271769146,0.8868484744058962,0.1564055671818801,0.5507603022363787,0.5085578059749508,0.7047365046462936,-0.1923596552208962,0.4343699520643153,0.4279240971384797,810.2930402930403,1038.351648351648,1284.542124542125,836.4835164835165,678.9377289377289,0.022034,0.108643,0.935608,14.833984,-57.444305,-109.879150,1,2,1,4,2,55.000000
2023-09-13 16:43:13.272,,,,,,,,,,,,,,,,,,,,,,,,,,,,,,,,,,,,,,/muse/elements/blink
2023-09-13 16:43:14.222,0.8841126341959782,0.667609970196532,0.7919430666448543,1.34672985300037,0.4997385293729315,0.03696543133979444,1.102225848582996,0.6230634842797843,1.238173208077517,-0.1947871876634144,0.4966760416430834,0.4675281271769146,0.8868484744058962,0.1564055671818801,0.5507603022363787,0.5085578059749508,0.7047365046462936,-0.1923596552208962,0.4343699520643153,0.4279240971384797,823.1868131868132,893.2967032967033,1463.443223443224,836.0805860805862,835.2747252747253,0.031372,0.156128,0.908142,17.159271,-3.327179,-71.725006,1,2,1,4,2,55.000000
2023-09-13 16:43:15.221,0.8841126341959782,0.667609970196532,0.7919430666448543,1.34672985300037,0.4997385293729315,0.03696543133979444,1.102225848582996,0.6230634842797843,1.238173208077517,-0.1947871876634144,0.4966760416430834,0.4675281271769146,0.8868484744058962,0.1564055671818801,0.5507603022363787,0.5085578059749508,0.7047365046462936,-0.1923596552208962,0.4343699520643153,0.4279240971384797,790.5494505494506,1295.018315018315,0,583.040293040293,755.0915750915751,-0.210754,0.015381,0.911621,-42.236481,80.891571,178.740540,1,2,1,4,2,55.000000
2023-09-13 16:43:15.331,,,,,,,,,,,,,,,,,,,,,,,,,,,,,,,,,,,,,,/muse/elements/blink
2023-09-13 16:43:15.331,,,,,,,,,,,,,,,,,,,,,,,,,,,,,,,,,,,,,,/muse/elements/jaw_clench
2023-09-13 16:43:15.532,,,,,,,,,,,,,,,,,,,,,,,,,,,,,,,,,,,,,,/muse/elements/blink
2023-09-13 16:43:16.221,0.8841126341959782,0.667609970196532,0.7919430666448543,1.34672985300037,0.4997385293729315,0.03696543133979444,1.102225848582996,0.6230634842797843,1.238173208077517,-0.1947871876634144,0.4966760416430834,0.4675281271769146,0.8868484744058962,0.1564055671818801,0.5507603022363787,0.5085578059749508,0.7047365046462936,-0.1923596552208962,0.4343699520643153,0.4279240971384797,799.8168498168499,727.6923076923077,602.7838827838827,822.7838827838829,817.1428571428571,-0.310608,-0.128540,0.933716,-3.484192,10.101166,6.826324,1,2,2,2,2,55.000000
2023-09-13 16:43:16.739,,,,,,,,,,,,,,,,,,,,,,,,,,,,,,,,,,,,,,/muse/elements/blink
2023-09-13 16:43:17.166,,,,,,,,,,,,,,,,,,,,,,,,,,,,,,,,,,,,,,/muse/elements/blink
2023-09-13 16:43:17.222,0.8841126341959782,0.667609970196532,0.7919430666448543,1.34672985300037,0.4997385293729315,0.03696543133979444,1.102225848582996,0.6230634842797843,1.238173208077517,-0.1947871876634144,0.4966760416430834,0.4675281271769146,0.8868484744058962,0.1564055671818801,0.5507603022363787,0.5085578059749508,0.7047365046462936,-0.1923596552208962,0.4343699520643153,0.4279240971384797,921.5018315018315,586.6666666666666,1625.421245421245,924.7252747252747,801.4285714285714,0.429016,0.203430,0.999756,36.741028,-28.703461,-33.428802,1,2,2,4,2,55.000000
2023-09-13 16:43:17.861,,,,,,,,,,,,,,,,,,,,,,,,,,,,,,,,,,,,,,/muse/elements/blink
2023-09-13 16:43:18.151,,,,,,,,,,,,,,,,,,,,,,,,,,,,,,,,,,,,,,/muse/elements/blink
2023-09-13 16:43:18.221,0.8841126341959782,0.667609970196532,0.7919430666448543,1.34672985300037,0.4997385293729315,0.03696543133979444,1.102225848582996,0.6230634842797843,1.238173208077517,-0.1947871876634144,0.4966760416430834,0.4675281271769146,0.8868484744058962,0.1564055671818801,0.5507603022363787,0.5085578059749508,0.7047365046462936,-0.1923596552208962,0.4343699520643153,0.4279240971384797,743.8095238095239,852.1978021978023,0,700.6959706959707,728.901098901099,0.230957,-0.028931,0.918640,26.714630,4.127197,92.861938,1,2,2,4,2,55.000000
2023-09-13 16:43:18.487,,,,,,,,,,,,,,,,,,,,,,,,,,,,,,,,,,,,,,/muse/elements/blink
2023-09-13 16:43:19.222,0.8841126341959782,0.667609970196532,0.7919430666448543,1.34672985300037,0.4997385293729315,0.03696543133979444,1.102225848582996,0.6230634842797843,1.238173208077517,-0.1947871876634144,0.4966760416430834,0.4675281271769146,0.8868484744058962,0.1564055671818801,0.5507603022363787,0.5085578059749508,0.7047365046462936,-0.1923596552208962,0.4343699520643153,0.4279240971384797,745.0183150183151,690.6227106227107,1608.095238095238,733.3333333333334,697.4725274725275,0.269592,-0.123535,0.888977,15.731201,-6.145935,-0.882263,1,2,2,4,2,55.000000
2023-09-13 16:43:19.887,,,,,,,,,,,,,,,,,,,,,,,,,,,,,,,,,,,,,,/muse/elements/blink
2023-09-13 16:43:20.200,,,,,,,,,,,,,,,,,,,,,,,,,,,,,,,,,,,,,,/muse/elements/blink
2023-09-13 16:43:20.200,,,,,,,,,,,,,,,,,,,,,,,,,,,,,,,,,,,,,,/muse/elements/jaw_clench
2023-09-13 16:43:20.222,0.8841126341959782,0.667609970196532,0.7919430666448543,1.34672985300037,0.4997385293729315,0.03696543133979444,1.102225848582996,0.6230634842797843,1.238173208077517,-0.1947871876634144,0.4966760416430834,0.4675281271769146,0.8868484744058962,0.1564055671818801,0.5507603022363787,0.5085578059749508,0.7047365046462936,-0.1923596552208962,0.4343699520643153,0.4279240971384797,701.5018315018315,1328.058608058608,0,618.4981684981685,838.901098901099,-0.387878,0.065430,0.886780,1.233673,-5.824432,-26.938934,1,2,2,4,2,55.000000
2023-09-13 16:43:21.011,,,,,,,,,,,,,,,,,,,,,,,,,,,,,,,,,,,,,,/muse/elements/jaw_clench
2023-09-13 16:43:21.222,0.8841126341959782,0.667609970196532,0.7919430666448543,1.34672985300037,0.4997385293729315,0.03696543133979444,1.102225848582996,0.6230634842797843,1.238173208077517,-0.1947871876634144,0.4966760416430834,0.4675281271769146,0.8868484744058962,0.1564055671818801,0.5507603022363787,0.5085578059749508,0.7047365046462936,-0.1923596552208962,0.4343699520643153,0.4279240971384797,780.4761904761905,866.3003663003664,528.6446886446887,807.8754578754579,783.6996336996338,-0.355286,0.026367,0.956848,4.912262,11.357269,5.637512,1,2,2,4,2,55.000000
2023-09-13 16:43:22.037,,,,,,,,,,,,,,,,,,,,,,,,,,,,,,,,,,,,,,/muse/elements/jaw_clench
2023-09-13 16:43:22.233,1.041236423824754,0.667609970196532,0.7919430666448543,1.34672985300037,0.5039526401135979,0.03696543133979444,1.102225848582996,0.6230634842797843,1.263726936397301,-0.1947871876634144,0.4966760416430834,0.4675281271769146,0.9978655311767233,0.1564055671818801,0.5507603022363787,0.5085578059749508,0.7278689441790667,-0.1923596552208962,0.4343699520643153,0.4279240971384797,785.3113553113553,730.1098901098901,780.8791208791209,807.8754578754579,736.5567765567765,-0.324707,-0.044861,0.943909,4.388885,2.841187,5.144043,1,1,1,4,1,55.000000
2023-09-13 16:43:23.222,1.072872347895153,0.667609970196532,0.7919430666448543,1.34672985300037,0.5719649771466542,0.03696543133979444,1.102225848582996,0.6230634842797843,1.32387159080298,-0.1947871876634144,0.4966760416430834,0.4675281271769146,0.8211334874144198,0.1564055671818801,0.5507603022363787,0.5085578059749508,0.6469372243552202,-0.1923596552208962,0.4343699520643153,0.4279240971384797,773.6263736263736,678.9377289377289,671.2820512820513,784.1025641025641,959.3772893772895,-0.223267,-0.100037,0.943787,-8.179626,-4.373932,-4.874878,1,1,1,4,1,55.000000
2023-09-13 16:43:24.222,0.9444815189872567,0.667609970196532,0.7919430666448543,1.34672985300037,0.6592198622112053,0.03696543133979444,1.102225848582996,0.6230634842797843,0.8844625037916422,-0.1947871876634144,0.4966760416430834,0.4675281271769146,0.5496976034878424,0.1564055671818801,0.5507603022363787,0.5085578059749508,0.4054891590792634,-0.1923596552208962,0.4343699520643153,0.4279240971384797,832.0512820512821,790.952380952381,766.7765567765568,846.1538461538462,726.0805860805862,-0.194458,-0.074951,0.965820,-1.054230,-8.456268,-0.942078,1,1,1,2,1,55.000000
2023-09-13 16:43:25.221,0.5195298311332909,0.667609970196532,0.7919430666448543,1.34672985300037,0.6765201723666999,0.03696543133979444,1.102225848582996,0.6230634842797843,0.7041130904087965,-0.1947871876634144,0.4966760416430834,0.4675281271769146,0.6046316426145407,0.1564055671818801,0.5507603022363787,0.5085578059749508,0.4402814363414028,-0.1923596552208962,0.4343699520643153,0.4279240971384797,788.1318681318681,800.6227106227107,887.2527472527473,769.5970695970697,782.0879120879121,-0.127808,-0.136536,0.956848,-1.749573,-2.429962,-0.889740,1,1,1,2,1,50.000000
2023-09-13 16:43:26.221,0.5195298311332909,0.667609970196532,0.7919430666448543,1.34672985300037,0.6765201723666999,0.03696543133979444,1.102225848582996,0.6230634842797843,0.7041130904087965,-0.1947871876634144,0.4966760416430834,0.4675281271769146,0.6046316426145407,0.1564055671818801,0.5507603022363787,0.5085578059749508,0.4402814363414028,-0.1923596552208962,0.4343699520643153,0.4279240971384797,848.974358974359,790.5494505494506,704.3223443223443,878.7912087912089,713.992673992674,-0.264587,-0.013184,0.942871,-0.328979,-0.971985,3.686066,1,1,1,2,1,50.000000
2023-09-13 16:43:27.221,0.5195298311332909,0.667609970196532,0.7919430666448543,1.34672985300037,0.6765201723666999,0.03696543133979444,1.102225848582996,0.6230634842797843,0.7041130904087965,-0.1947871876634144,0.4966760416430834,0.4675281271769146,0.6046316426145407,0.1564055671818801,0.5507603022363787,0.5085578059749508,0.4402814363414028,-0.1923596552208962,0.4343699520643153,0.4279240971384797,848.974358974359,790.5494505494506,704.3223443223443,878.7912087912089,713.992673992674,-0.264587,-0.013184,0.942871,-0.328979,-0.971985,3.686066,1,1,1,2,1,50.000000
2023-09-13 16:43:28.006,,,,,,,,,,,,,,,,,,,,,,,,,,,,,,,,,,,,,,/muse/event/disconnected Muse-D424
2023-09-13 16:43:36.825,,,,,,,,,,,,,,,,,,,,,,,,,,,,,,,,,,,,,,/muse/event/connected Muse-D424
2023-09-13 16:43:37.220,0.5195298311332909,0.667609970196532,0.7919430666448543,1.34672985300037,0.6765201723666999,0.03696543133979444,1.102225848582996,0.6230634842797843,0.7041130904087965,-0.1947871876634144,0.4966760416430834,0.4675281271769146,0.6046316426145407,0.1564055671818801,0.5507603022363787,0.5085578059749508,0.4402814363414028,-0.1923596552208962,0.4343699520643153,0.4279240971384797,783.2967032967033,785.7142857142858,803.040293040293,799.4139194139194,689.0109890109891,-0.191956,0.000549,0.945557,1.114044,7.372131,-7.274933,1,1,1,2,1,50.000000
2023-09-13 16:43:38.229,0,0,0,0,0,0,0,0,0,0,0,0,0,0,0,0,0,0,0,0,820.3663003663004,785.3113553113553,716.007326007326,811.0989010989011,697.8754578754579,-0.328796,-0.000916,0.949280,5.316010,4.747772,-2.429962,0,4,4,4,4,50.000000
2023-09-13 16:43:39.230,0,0,0,0,0,0,0,0,0,0,0,0,0,0,0,0,0,0,0,0,770.8058608058608,761.5384615384615,786.9230769230769,780.0732600732601,688.6080586080586,-0.385498,-0.131531,0.923828,3.304749,3.820648,3.342133,0,4,4,4,4,50.000000
2023-09-13 16:43:40.228,0.7371010674040879,0.8468167156730515,0,0,0.1824167662156135,0.3139785078322906,0,0,0.6913886866055419,0.3207984433072152,0,0,0.4925278500037967,0.485534866922256,0,0,-0.006072373785344587,0.3914551345748626,0,0,788.9377289377289,747.4358974358975,768.7912087912088,812.3076923076924,842.9304029304029,-0.368591,-0.092590,0.918030,5.532837,-3.775787,-0.575714,1,2,1,1,2,50.000000
2023-09-13 16:43:41.221,0.8178439464625812,0.8875498288583912,0,0.6172342091311701,0.3575494181439691,0.3125587678610389,0,0.3590610076141396,0.7351488743893775,0.5750778119303623,0,0.9632948985376513,0.5086631113856773,0.4591655014158857,0,1.170953349010882,0.02257035262474702,0.2951350253082881,0,0.9417901494963976,829.6336996336996,767.985347985348,507.2893772893773,836.8864468864469,872.3443223443223,-0.255127,0.008057,0.971497,21.563110,-34.834442,0.777588,1,1,1,1,1,50.000000
2023-09-13 16:43:42.221,0.9148493904798831,1.017130026656737,0,0.6628500399028998,0.4683459385290468,0.3634595811030312,0,0.3824518539688842,0.6339501095397013,0.5608109101126217,0,0.943863123470232,0.5206487592713549,0.43039518112966,0,1.168831640282508,0.06650826736686624,0.1383465790565368,0,0.9145578340669626,750.6593406593407,740.5860805860806,680.5494505494506,758.3150183150184,700.2930402930403,-0.329285,-0.091919,0.915100,-4.179535,1.106567,-1.383209,1,1,1,4,1,50.000000
2023-09-13 16:43:43.221,1.043571935441636,1.017130026656737,0,0.6628500399028998,0.4772792292282662,0.3634595811030312,0,0.3824518539688842,0.8279048896291196,0.5608109101126217,0,0.943863123470232,0.538284007397606,0.43039518112966,0,1.168831640282508,0.2330121191836979,0.1383465790565368,0,0.9145578340669626,772.4175824175825,780.4761904761905,881.6117216117217,793.7728937728938,765.5677655677656,-0.343567,-0.033020,0.917603,1.106567,0.829926,0.583191,1,1,1,1,1,50.000000
2023-09-13 16:43:44.223,1.112865993649354,0.6788103414013846,0,0.9453529705930029,0.3423795248189415,-0.09449012134371293,0,0.7126067482596629,0.8309528942568438,0.4365513207747524,0,1.045198329913257,0.6834506631950946,0.5364894921216447,0,0.9138112455576163,0.2403823903491706,0.4231717041996601,0,0.7433297442424084,786.5201465201466,773.2234432234433,749.8534798534798,780.8791208791209,784.1025641025641,-0.341675,-0.037354,0.923584,1.420593,-5.084229,0.059814,1,1,1,1,1,50.000000
2023-09-13 16:43:45.234,0.6206402183912343,0.5695221575057172,0,0.6021354430629945,0.4851260168096078,0.007682363943127814,0,0.6413327909716855,1.054485895443458,0.3496452588610235,0,0.7575424787744597,0.6019092130970719,0.4425023152012662,0,0.8633994588614116,0.08167394889874678,0.2235246954388771,0,0.7724038212343656,780.4761904761905,787.7289377289378,856.2271062271062,786.1172161172161,674.5054945054945,-0.360107,0.078003,0.952026,9.024506,-0.433655,13.204041,1,1,1,1,1,50.000000
2023-09-13 16:43:46.221,0.7096698266928468,0.5850118569942936,0,0.394215045830672,0.5507457918745774,0.1352473359455725,0,0.2408771265491537,1.095790840573128,0.1943000345235785,0,0.4019556476743443,0.605013249420158,0.5761583052933221,0,0.9715315136223666,0.2961069454670592,0.2627085354028897,0,0.7455470654077789,872.7472527472528,847.7655677655678,706.7399267399268,852.6007326007326,836.8864468864469,-0.395081,-0.050903,0.870972,-23.417358,1.345825,4.837494,1,1,1,4,1,55.000000
2023-09-13 16:43:47.221,0.791792807058449,0.5436527639350244,0,0.394215045830672,0.5662067836792732,0.1605451562014666,0,0.2408771265491537,1.083798392973188,0.1943000345235785,0,0.4019556476743443,0.5740341004750199,0.6093495981610119,0,0.9715315136223666,0.3369639212200223,0.2703377094161854,0,0.7455470654077789,730.9157509157509,770,788.1318681318681,726.8864468864469,698.2783882783883,-0.412964,-0.030396,0.905823,-0.261688,-7.790833,-2.183228,1,1,1,1,1,55.000000
2023-09-13 16:43:48.227,0.791792807058449,0.5436527639350244,0,0.394215045830672,0.5662067836792732,0.1605451562014666,0,0.2408771265491537,1.083798392973188,0.1943000345235785,0,0.4019556476743443,0.5740341004750199,0.6093495981610119,0,0.9715315136223666,0.3369639212200223,0.2703377094161854,0,0.7455470654077789,755.8974358974359,770.8058608058608,722.8571428571429,742.6007326007326,643.0769230769231,-0.318054,0.102478,0.935852,-3.783264,-22.520142,46.789856,1,1,1,1,1,55.000000
