TimeStamp,Delta_TP9,Delta_AF7,Delta_AF8,Delta_TP10,Theta_TP9,Theta_AF7,Theta_AF8,Theta_TP10,Alpha_TP9,Alpha_AF7,Alpha_AF8,Alpha_TP10,Beta_TP9,Beta_AF7,Beta_AF8,Beta_TP10,Gamma_TP9,Gamma_AF7,Gamma_AF8,Gamma_TP10,RAW_TP9,RAW_AF7,RAW_AF8,RAW_TP10,AUX_RIGHT,Accelerometer_X,Accelerometer_Y,Accelerometer_Z,Gyro_X,Gyro_Y,Gyro_Z,HeadBandOn,HSI_TP9,HSI_AF7,HSI_AF8,HSI_TP10,Battery,Elements
2023-08-29 17:20:32.503,,,,,,,,,,,,,,,,,,,,,,,,,,,,,,,,,,,,,,/muse/event/connected Muse-D424
2023-08-29 17:20:32.559,,,,,,,,,,,,,,,,,,,,,,,,,,,,,,,,,,,,,,/muse/elements/blink
2023-08-29 17:20:32.568,,,,,,,,,,,,,,,,,,,,,,,,,,,,,,,,,,,,,,/muse/elements/blink
2023-08-29 17:20:32.571,,,,,,,,,,,,,,,,,,,,,,,,,,,,,,,,,,,,,,/muse/elements/blink
2023-08-29 17:20:32.571,,,,,,,,,,,,,,,,,,,,,,,,,,,,,,,,,,,,,,/muse/elements/jaw_clench
2023-08-29 17:20:32.574,,,,,,,,,,,,,,,,,,,,,,,,,,,,,,,,,,,,,,/muse/elements/blink
2023-08-29 17:20:32.577,,,,,,,,,,,,,,,,,,,,,,,,,,,,,,,,,,,,,,/muse/elements/blink
2023-08-29 17:20:32.708,,,,,,,,,,,,,,,,,,,,,,,,,,,,,,,,,,,,,,/muse/elements/blink
2023-08-29 17:20:32.891,,,,,,,,,,,,,,,,,,,,,,,,,,,,,,,,,,,,,,/muse/elements/blink
2023-08-29 17:20:33.218,,,,,,,,,,,,,,,,,,,,,,,,,,,,,,,,,,,,,,/muse/elements/blink
2023-08-29 17:20:33.415,,,,,,,,,,,,,,,,,,,,,,,,,,,,,,,,,,,,,,/muse/elements/blink
2023-08-29 17:20:33.514,0,0.1951842918998863,-0.01016170481090148,0.9992125189869902,0,0.0871413405944018,0.08440589971592288,0.9293513726333891,0,0.7078811310777368,0.2544234923241416,0.634222982966371,0,0.8824681727788941,0.5970944889496482,0.7473623488830194,0,0.757742717891373,0.600027156753915,0.4260458116610457,991.6117216117217,776.0439560439561,797.8021978021978,918.2783882783883,920.2930402930403,-0.708984,-0.024109,0.702332,2.429962,-4.942169,0.171967,1,4,1,1,1,85.000000
2023-08-29 17:20:33.829,,,,,,,,,,,,,,,,,,,,,,,,,,,,,,,,,,,,,,/muse/elements/jaw_clench
2023-08-29 17:20:33.918,,,,,,,,,,,,,,,,,,,,,,,,,,,,,,,,,,,,,,/muse/elements/blink
2023-08-29 17:20:34.027,,,,,,,,,,,,,,,,,,,,,,,,,,,,,,,,,,,,,,/muse/elements/jaw_clench
2023-08-29 17:20:34.504,0,0.1753910813843396,-0.1578344545897608,0.9840556463645946,0,0.1491531543821075,-0.1123294508923105,0.8993334664554036,0,0.3852185839689216,0.306605535707164,0.6382646267552743,0,0.9163703354432041,0.5869086666681805,0.7100543184711527,0,0.6131352444960591,0.4676335032322161,0.417049706227706,423.0769230769231,777.6556776556777,808.6813186813187,790.952380952381,751.0622710622711,-0.687073,-0.013916,0.722351,2.160797,-4.388885,-0.306549,1,4,1,1,1,85.000000
2023-08-29 17:20:34.616,,,,,,,,,,,,,,,,,,,,,,,,,,,,,,,,,,,,,,/muse/elements/blink
2023-08-29 17:20:34.616,,,,,,,,,,,,,,,,,,,,,,,,,,,,,,,,,,,,,,/muse/elements/jaw_clench
2023-08-29 17:20:34.855,,,,,,,,,,,,,,,,,,,,,,,,,,,,,,,,,,,,,,/muse/elements/jaw_clench
2023-08-29 17:20:35.332,,,,,,,,,,,,,,,,,,,,,,,,,,,,,,,,,,,,,,/muse/elements/blink
2023-08-29 17:20:35.504,0,0.3305509470019104,0.517550932785803,0.7176081646142789,0,-0.1266028240420479,0.09345322905651329,0.4493273552980562,0,0.1148274126969265,0.5689225206203067,0.3848062899024763,0,0.8172980654238819,0.4154480506567541,0.5388848634396654,0,0.5811911453566588,0.2115010968073095,0.3727621628601363,0,780.8791208791209,812.7106227106227,680.5494505494506,763.956043956044,-0.663452,-0.016907,0.736694,2.093506,-3.409424,0.471039,1,4,1,1,1,85.000000
2023-08-29 17:20:36.081,,,,,,,,,,,,,,,,,,,,,,,,,,,,,,,,,,,,,,/muse/elements/blink
2023-08-29 17:20:36.277,,,,,,,,,,,,,,,,,,,,,,,,,,,,,,,,,,,,,,/muse/elements/blink
2023-08-29 17:20:36.277,,,,,,,,,,,,,,,,,,,,,,,,,,,,,,,,,,,,,,/muse/elements/jaw_clench
2023-08-29 17:20:36.508,0,0.2932038409020479,0.7997501324305155,0.2222805613414813,0,-0.1278381464734935,0.2248705579870847,0.3516740123854085,0,0.09652094496687275,0.5725614966049457,0.5011708979025041,0,0.7652985907599382,0.4250076980224437,0.4860038826276822,0,0.6079810631453867,0.1335047244840874,0.3953891528224966,671.6849816849817,796.996336996337,796.5934065934066,845.7509157509157,897.7289377289378,-0.659485,-0.014343,0.744873,1.996307,-4.097290,-0.448608,1,4,1,1,1,85.000000
2023-08-29 17:20:36.781,,,,,,,,,,,,,,,,,,,,,,,,,,,,,,,,,,,,,,/muse/elements/blink
2023-08-29 17:20:36.781,,,,,,,,,,,,,,,,,,,,,,,,,,,,,,,,,,,,,,/muse/elements/jaw_clench
2023-08-29 17:20:36.956,,,,,,,,,,,,,,,,,,,,,,,,,,,,,,,,,,,,,,/muse/elements/blink
2023-08-29 17:20:37.476,,,,,,,,,,,,,,,,,,,,,,,,,,,,,,,,,,,,,,/muse/elements/blink
2023-08-29 17:20:37.509,0,0.2311734825623412,0.5133080845438063,0.3075106262901336,0,-0.1043060351398393,-0.09054554881015801,0.1528268149760438,0,0.451637321611803,0.2903028663604328,0.5678239455462609,0,0.8131959283502803,0.4566655173910078,0.6881111207231458,0,0.7318083975659009,0.1909826310024815,0.2973500189597851,0,767.5824175824176,791.3553113553114,728.0952380952381,674.9084249084249,-0.659363,-0.011841,0.738220,2.444916,-2.063599,-0.343933,1,2,1,1,1,85.000000
2023-08-29 17:20:37.671,,,,,,,,,,,,,,,,,,,,,,,,,,,,,,,,,,,,,,/muse/elements/blink
2023-08-29 17:20:38.213,,,,,,,,,,,,,,,,,,,,,,,,,,,,,,,,,,,,,,/muse/elements/blink
2023-08-29 17:20:38.503,0,0.01751668590045076,0.2154403364332419,0.6632828572776102,0,-0.1878856813899408,-0.2465056700911423,0.6469191471605692,0,0.5415950295148453,0.4362732917863348,0.6690472456545714,0,0.9248748846099449,0.4317071244377074,0.6950893650661123,0,0.6795621830650153,0.3340276582662179,0.3111532754848765,105.1648351648352,802.2344322344322,801.8315018315019,1053.663003663004,913.040293040293,-0.654053,-0.012451,0.743652,2.115936,-3.947754,-0.485992,1,4,1,1,1,85.000000
2023-08-29 17:20:38.520,,,,,,,,,,,,,,,,,,,,,,,,,,,,,,,,,,,,,,/muse/elements/blink
2023-08-29 17:20:38.997,,,,,,,,,,,,,,,,,,,,,,,,,,,,,,,,,,,,,,/muse/elements/blink
2023-08-29 17:20:39.214,,,,,,,,,,,,,,,,,,,,,,,,,,,,,,,,,,,,,,/muse/elements/jaw_clench
2023-08-29 17:20:39.512,0,0.02678390042266687,0.3965425451140859,0.8710736145283325,0,-0.1766201790736636,-0.2187644098083499,0.8811980832651802,0,0.4424498826468972,0.3606969354494562,0.6623934576228049,0,0.8395108157338913,0.5056718148692469,0.6835915578938042,0,0.6459962076146593,0.1487134571231453,0.2266817216696916,6.84981684981685,781.2820512820513,774.8351648351648,1049.230769230769,884.0293040293041,-0.651062,-0.007263,0.750244,1.809387,-3.820648,-0.874786,1,4,1,1,1,85.000000
2023-08-29 17:20:39.608,,,,,,,,,,,,,,,,,,,,,,,,,,,,,,,,,,,,,,/muse/elements/blink
2023-08-29 17:20:40.503,0,0.08284966075909858,0.2977439497039079,0.7466842298436915,0,-0.4005365884944136,-0.5249568179295586,0.3827926946283288,0,0.03420305420854406,0.09979148474190658,0.5398610744292378,0,0.6164845652856228,0.5076385549978869,0.6700735374786363,0,0.4183930006418347,0.1160657305405174,0.3243434327943648,1440.07326007326,788.9377289377289,788.9377289377289,1024.652014652015,968.2417582417582,-0.646179,-0.013123,0.751953,2.205658,-3.514099,-0.381317,1,4,1,1,1,85.000000
2023-08-29 17:20:40.550,,,,,,,,,,,,,,,,,,,,,,,,,,,,,,,,,,,,,,/muse/elements/blink
2023-08-29 17:20:40.964,,,,,,,,,,,,,,,,,,,,,,,,,,,,,,,,,,,,,,/muse/elements/jaw_clench
2023-08-29 17:20:41.333,,,,,,,,,,,,,,,,,,,,,,,,,,,,,,,,,,,,,,/muse/elements/blink
2023-08-29 17:20:41.503,0,-0.1410547382892987,0.2899729925807962,0.5989841300750894,0,-0.3380319740296981,0.06671728467227211,0.6033400325027695,0,0.09888785942119954,0.3979339907849425,0.654811182966534,0,0.8141355944155901,0.409301225690762,0.5936608806054086,0,0.4778126763048963,0.1271341094162116,0.2229024969708197,75.34798534798534,794.1758241758242,778.4615384615385,1074.212454212454,897.7289377289378,-0.763306,-0.009705,0.642639,3.850555,1.121521,-1.286011,1,4,1,1,1,85.000000
2023-08-29 17:20:41.571,,,,,,,,,,,,,,,,,,,,,,,,,,,,,,,,,,,,,,/muse/elements/blink
2023-08-29 17:20:42.271,,,,,,,,,,,,,,,,,,,,,,,,,,,,,,,,,,,,,,/muse/elements/blink
2023-08-29 17:20:42.503,0,0.3476441844897199,0.5780736605587936,0.2321624557074144,0,-0.1582004943200104,0.4374295392114035,0.7246892156828907,0,0.02549231874941823,0.4282616260485289,0.6492095475925703,0,1.026566201610678,0.5059575749245747,0.5484339395536223,0,0.8286526825729795,0.02779513798306718,0.09322728820088547,1641.538461538462,826.8131868131868,811.9047619047619,1041.575091575092,987.1794871794872,-0.696106,0.005371,0.711426,2.422485,-4.194489,-2.228088,1,4,1,1,1,85.000000
2023-08-29 17:20:43.507,0,0.3619712185325057,0.7808806642852348,0.2513042378453907,0,-0.2501567858971874,0.02241718559384375,0.4110705328815683,0,0.1353829226251889,0.2809963095435423,0.5483501079478252,0,1.012025921057696,0.601734874163249,0.4791266943155917,0,0.8076542897632647,0.2369168398505922,0.5168121297628445,163.5897435897436,800.2197802197802,770.4029304029305,1021.428571428571,935.6043956043957,-0.654785,0.000854,0.735168,2.594452,-5.031891,-2.153320,1,4,1,1,1,85.000000
2023-08-29 17:20:43.691,,,,,,,,,,,,,,,,,,,,,,,,,,,,,,,,,,,,,,/muse/elements/jaw_clench
2023-08-29 17:20:44.509,0,0.3939277785149344,0.7131803655744857,0.1397521283512476,0,0.1318152494256493,-0.1309445891989007,0.3235441234260766,0,0.2130341731441767,0.3272014653893231,0.5639707753995256,0,0.9795787035377104,0.5224080122137466,0.582030537775448,0,0.7196782386004166,0.2397592093756835,0.4388448737813815,42.30769230769231,804.6520146520147,776.8498168498169,1073.406593406593,945.2747252747253,-0.665833,0.012756,0.743896,-0.179443,17.981720,2.766418,1,4,1,1,1,75.000000
2023-08-29 17:20:44.609,,,,,,,,,,,,,,,,,,,,,,,,,,,,,,,,,,,,,,/muse/elements/blink
2023-08-29 17:20:45.004,,,,,,,,,,,,,,,,,,,,,,,,,,,,,,,,,,,,,,/muse/elements/blink
2023-08-29 17:20:45.224,,,,,,,,,,,,,,,,,,,,,,,,,,,,,,,,,,,,,,/muse/elements/blink
2023-08-29 17:20:45.504,0,0.378080522276659,0.6460608701295503,-0.08088275081324511,0,0.2085181874758271,0.3346132293562832,0.02131549610167418,0,0.3397749182060785,0.687477611188283,0.05901921345341278,0,0.9549415730699681,0.6586386470789787,0.6946844948359168,0,0.8183746421591127,0.5036347425894409,0.3890973254204614,1645.970695970696,806.6666666666667,798.6080586080586,1032.710622710623,937.6190476190476,-0.680542,0.016479,0.729675,1.921539,-5.794525,-0.575714,1,4,1,1,1,75.000000
2023-08-29 17:20:46.503,0,0.4011805740588936,0.4843314063417595,1.104387582050598,0,0.2724620080395134,0.0171374364636445,1.099394863744188,0,0.3490138369117941,0.5952727470090365,0.6864722129262659,0,0.9443179902878576,0.6736435998421131,0.5855281058780952,0,0.8320640452226375,0.5590198326604784,0.4296787144545188,163.5897435897436,813.1135531135532,812.7106227106227,995.2380952380953,966.2271062271062,-0.640198,0.051331,0.776611,2.751465,-20.090179,5.353394,1,4,1,1,1,75.000000
2023-08-29 17:20:46.808,,,,,,,,,,,,,,,,,,,,,,,,,,,,,,,,,,,,,,/muse/elements/blink
2023-08-29 17:20:47.504,0,0.1906381949385915,0.5858337020352625,1.021072325862165,0,-0.1148065841703545,-0.1342860056752034,0.8108360541182851,0,0.3946943187051278,0.1718272994495651,0.5428027468240476,0,0.8360529004725366,0.5552640378866447,0.7363549607854855,0,0.9320397715094586,0.4496343772652165,0.5909960546892505,66.08058608058609,810.2930402930403,777.2527472527473,1028.681318681319,1068.974358974359,-0.615540,0.040405,0.775696,2.542114,-7.596436,0.014954,1,4,1,1,1,75.000000
2023-08-29 17:20:47.768,,,,,,,,,,,,,,,,,,,,,,,,,,,,,,,,,,,,,,/muse/elements/blink
2023-08-29 17:20:48.272,,,,,,,,,,,,,,,,,,,,,,,,,,,,,,,,,,,,,,/muse/elements/blink
2023-08-29 17:20:48.503,0,0.5785115565596133,0.8554768467286293,0.5982520005630899,0,0.08002055789887404,0.142351561288943,0.3030873084850546,0,0.4410049244726621,0.2967425261902971,0.6031596565950786,0,0.9527828829035403,0.6870175908524884,0.7438524230153171,0,0.7863107714821912,0.4826272427570307,0.3791439520649808,0.8058608058608059,812.7106227106227,780.0732600732601,1047.619047619048,1146.336996336996,-0.627869,0.032104,0.769470,1.951447,-2.818756,-0.702820,1,4,1,1,1,75.000000
2023-08-29 17:20:49.166,,,,,,,,,,,,,,,,,,,,,,,,,,,,,,,,,,,,,,/muse/elements/blink
2023-08-29 17:20:49.344,,,,,,,,,,,,,,,,,,,,,,,,,,,,,,,,,,,,,,/muse/elements/blink
2023-08-29 17:20:49.509,0,0.2322890616241635,0.4389528589725195,0.5329427375158785,0,0.04587355401528995,-0.1597058968580103,0.1602351964702804,0,0.3074457590509732,0.3736206171585826,0.637377172741445,0,1.065334074542777,0.5986631209239033,0.7209775610005404,0,0.8437728407825111,0.4650392286783144,0.4519340487071315,168.4249084249084,823.992673992674,809.0842490842491,1004.908424908425,922.7106227106227,-0.615051,0.031189,0.779297,1.607513,-3.775787,-0.254211,1,4,1,1,1,75.000000
2023-08-29 17:20:49.605,,,,,,,,,,,,,,,,,,,,,,,,,,,,,,,,,,,,,,/muse/elements/blink
2023-08-29 17:20:50.284,,,,,,,,,,,,,,,,,,,,,,,,,,,,,,,,,,,,,,/muse/elements/blink
2023-08-29 17:20:50.511,0,0.3108371441675974,0.4740836869101764,0.3058535204557646,0,0.02829688122600286,-0.2569011306899222,0.09262915532842289,0,0.436926599142572,0.3196557235628416,0.5495316328359019,0,1.02606984238218,0.5970465176511741,0.6804023580624294,0,0.748019802081254,0.3600032805677602,0.3955837283825246,86.63003663003663,813.1135531135532,779.2673992673992,1034.725274725275,938.021978021978,-0.610291,0.035522,0.778748,1.914062,-4.209442,-1.846771,1,4,1,1,1,75.000000
2023-08-29 17:20:50.809,,,,,,,,,,,,,,,,,,,,,,,,,,,,,,,,,,,,,,/muse/elements/blink
2023-08-29 17:20:51.006,,,,,,,,,,,,,,,,,,,,,,,,,,,,,,,,,,,,,,/muse/elements/blink
2023-08-29 17:20:51.183,,,,,,,,,,,,,,,,,,,,,,,,,,,,,,,,,,,,,,/muse/elements/blink
2023-08-29 17:20:51.504,0,0.4660878823521483,0.4421857303275382,-0.0276960278327179,0,-0.3134123623317481,-0.2390810299631678,0.05029652351002065,0,0.3611507380558046,0.396382045770313,0.4130368965462774,0,0.8772580736524693,0.6332508678916979,0.4960768725773965,0,0.6562463952090221,0.238247689440934,0.2764932746786525,10.47619047619048,791.3553113553114,791.7582417582418,1052.857142857143,1042.380952380953,-0.598145,0.030884,0.789429,1.891632,-4.747772,-0.082245,1,4,1,1,1,75.000000
2023-08-29 17:20:51.924,,,,,,,,,,,,,,,,,,,,,,,,,,,,,,,,,,,,,,/muse/elements/blink
2023-08-29 17:20:52.120,,,,,,,,,,,,,,,,,,,,,,,,,,,,,,,,,,,,,,/muse/elements/blink
2023-08-29 17:20:52.404,,,,,,,,,,,,,,,,,,,,,,,,,,,,,,,,,,,,,,/muse/elements/blink
2023-08-29 17:20:52.504,0,0.001182099925129474,-0.0510197659727264,0.2556768561525061,0,-0.2243391543675974,-0.08601355641760385,0.5395842218400164,0,0.3858643638639671,0.4053501892863367,0.8084750542514558,0,0.8338987511363712,0.6142908321861422,0.5909629538244312,0,0.5691558683007267,0.4124087717915421,0.399253755121238,149.8901098901099,794.981684981685,788.9377289377289,990,898.5347985347986,-0.589417,0.033508,0.795959,2.093506,-3.065491,0.351410,1,4,1,1,1,75.000000
2023-08-29 17:20:52.623,,,,,,,,,,,,,,,,,,,,,,,,,,,,,,,,,,,,,,/muse/elements/blink
2023-08-29 17:20:53.504,0,-0.1169126236402966,0.1336914277875049,0.6919294241392018,0,-0.1276857818077879,-0.2540657159964037,0.5921628501594148,0,0.4876986397873,0.3901756943536743,0.835805957163075,0,0.7843140739063805,0.6234501240534843,0.6385714447861617,0,0.6813389006128525,0.3520092860886975,0.3666465707365895,127.3260073260073,816.3369963369963,814.3223443223443,1034.725274725275,882.4175824175825,-0.589355,0.030945,0.797119,1.345825,-3.798218,-0.665436,1,4,1,1,1,75.000000
2023-08-29 17:20:53.607,,,,,,,,,,,,,,,,,,,,,,,,,,,,,,,,,,,,,,/muse/elements/jaw_clench
2023-08-29 17:20:53.779,,,,,,,,,,,,,,,,,,,,,,,,,,,,,,,,,,,,,,/muse/elements/blink
2023-08-29 17:20:53.845,,,,,,,,,,,,,,,,,,,,,,,,,,,,,,,,,,,,,,/muse/elements/jaw_clench
2023-08-29 17:20:54.368,,,,,,,,,,,,,,,,,,,,,,,,,,,,,,,,,,,,,,/muse/elements/blink
2023-08-29 17:20:54.510,0,0.2176915032435434,0.3804202779234709,0.7360774110017548,0,-0.2943399804370647,-0.4533708105474317,0.5506758084444102,0,0.4474581491128227,0.3040313150692538,0.7862332368689264,0,0.8561463833120564,0.6158354685729096,0.5997330066338631,0,0.734283313113836,0.2809782893465408,0.4103678814672932,1487.216117216117,783.2967032967033,780.8791208791209,875.9706959706959,824.3956043956044,-0.604980,0.024841,0.796631,1.607513,-0.396271,-1.465454,1,4,1,1,1,75.000000
2023-08-29 17:20:55.438,,,,,,,,,,,,,,,,,,,,,,,,,,,,,,,,,,,,,,/muse/elements/blink
2023-08-29 17:20:55.503,0,0.3880226440611997,0.5805253984988032,-0.08333764191277372,0,0.2224048767105195,0.03226021707647019,0.3253933011753892,0,0.5634656530984737,0.3787505699788498,0.4223077701754944,0,0.9653695496366902,0.4286629007396068,0.6053039327493749,0,0.6926570682383949,0.3163323728171301,0.4329094638045927,47.94871794871795,805.4578754578755,790.952380952381,954.9450549450549,935.2014652014652,-0.613586,0.029297,0.783691,0.672913,-4.015045,2.489777,1,4,1,1,1,85.000000
2023-08-29 17:20:55.872,,,,,,,,,,,,,,,,,,,,,,,,,,,,,,,,,,,,,,/muse/elements/blink
2023-08-29 17:20:56.047,,,,,,,,,,,,,,,,,,,,,,,,,,,,,,,,,,,,,,/muse/elements/blink
2023-08-29 17:20:56.503,0,0.340296890799641,0.6527518266411305,-0.08333764191277372,0,0.2356442272307289,0.2557928975134566,0.3253933011753892,0,0.7641042994864238,0.5506092532296318,0.4223077701754944,0,0.997746430792892,0.5183945902857267,0.6053039327493749,0,0.7439436392636375,0.3026413662415454,0.4329094638045927,168.8278388278388,827.2161172161173,793.7728937728938,974.6886446886447,838.0952380952381,-0.598206,-0.043823,0.779480,0.710297,-6.893616,-12.015228,1,4,1,1,1,85.000000
2023-08-29 17:20:56.656,,,,,,,,,,,,,,,,,,,,,,,,,,,,,,,,,,,,,,/muse/elements/blink
2023-08-29 17:20:56.983,,,,,,,,,,,,,,,,,,,,,,,,,,,,,,,,,,,,,,/muse/elements/blink
2023-08-29 17:20:57.504,0,0.277938716694658,0.622893341221041,0.2300296906930034,0,-0.1555779499135904,0.1546450264174386,0.3620740420704388,0,0.5765538443826372,0.5638003599513988,0.6230433386346816,0,0.9938821100206376,0.4864387663873198,0.705719152431188,0,0.7320071842988763,0.2137184637928075,0.3776292067754247,101.9413919413919,813.919413919414,809.0842490842491,1036.336996336996,962.1978021978023,-0.586365,-0.031372,0.795532,2.930908,-4.912262,-1.158905,1,4,1,1,1,85.000000
2023-08-29 17:20:57.506,,,,,,,,,,,,,,,,,,,,,,,,,,,,,,,,,,,,,,/muse/elements/blink
2023-08-29 17:20:57.898,,,,,,,,,,,,,,,,,,,,,,,,,,,,,,,,,,,,,,/muse/elements/blink
2023-08-29 17:20:58.117,,,,,,,,,,,,,,,,,,,,,,,,,,,,,,,,,,,,,,/muse/elements/blink
2023-08-29 17:20:58.313,,,,,,,,,,,,,,,,,,,,,,,,,,,,,,,,,,,,,,/muse/elements/blink
2023-08-29 17:20:58.504,0,-0.01630403625283527,0.7052686975556659,0.2069793844240281,0,-0.1355076565658846,0.01453795116840883,0.427061617743777,0,0.4268310334065032,0.5289274506224886,0.6086568915499467,0,1.046866694856213,0.5386797967100744,0.6326843666538777,0,0.63480532424411,0.3275975010003053,0.3508613917151465,12.08791208791209,790.952380952381,801.4285714285714,1034.725274725275,976.3003663003664,-0.579895,-0.028137,0.809631,1.689758,-3.805695,-1.734619,1,4,1,1,1,85.000000
2023-08-29 17:20:59.009,,,,,,,,,,,,,,,,,,,,,,,,,,,,,,,,,,,,,,/muse/elements/blink
2023-08-29 17:20:59.248,,,,,,,,,,,,,,,,,,,,,,,,,,,,,,,,,,,,,,/muse/elements/blink
2023-08-29 17:20:59.466,,,,,,,,,,,,,,,,,,,,,,,,,,,,,,,,,,,,,,/muse/elements/blink
2023-08-29 17:20:59.504,0,0.03900556832663393,0.2822064471302171,0.3030160016937345,0,0.05547276029254797,-0.2058426904346505,0.3511644307979075,0,0.2302337275496416,0.2552057160056155,0.621143858819344,0,1.036194074723867,0.5466838711339291,0.5697839301571554,0,0.7251430726529928,0.3915879922659021,0.4820842637743808,111.6117216117216,803.4432234432235,785.3113553113553,955.7509157509157,814.3223443223443,-0.578796,-0.024719,0.799316,1.891632,-3.319702,0.583191,1,4,1,1,1,85.000000
2023-08-29 17:20:59.946,,,,,,,,,,,,,,,,,,,,,,,,,,,,,,,,,,,,,,/muse/elements/blink
2023-08-29 17:21:00.251,,,,,,,,,,,,,,,,,,,,,,,,,,,,,,,,,,,,,,/muse/elements/blink
2023-08-29 17:21:00.504,0,0.5429602901255669,0.238513455038251,0.2950017119197885,0,0.2511513269742677,0.222445249180745,0.1385437768565288,0,0.4305843219384059,0.3341964411524608,0.5420534940481594,0,0.9383038958969512,0.5971522902281463,0.7118748460679468,0,0.8116157922594587,0.4023176052233635,0.5231413634584502,159.1575091575092,809.4871794871796,796.1904761904763,1009.340659340659,895.3113553113553,-0.590149,-0.018738,0.802795,1.936493,-3.843079,-0.396271,1,4,1,1,1,85.000000
2023-08-29 17:21:00.930,,,,,,,,,,,,,,,,,,,,,,,,,,,,,,,,,,,,,,/muse/elements/blink
2023-08-29 17:21:01.503,0,0.6404000331156756,0.5254908348848892,-0.1186915329819433,0,0.2952855038485065,0.2559840773445751,0.04419718718941275,0,0.2951655772350111,0.321845803536166,0.426565538265481,0,1.005069997874706,0.5411844527736495,0.8177051422080356,0,0.671175058243096,0.3080737745818375,0.360264647641992,1408.241758241758,792.1611721611722,783.2967032967033,836.8864468864469,819.1575091575091,-0.589417,-0.009460,0.797913,1.480408,-2.609406,-0.411224,1,4,1,1,1,85.000000
2023-08-29 17:21:01.672,,,,,,,,,,,,,,,,,,,,,,,,,,,,,,,,,,,,,,/muse/elements/jaw_clench
2023-08-29 17:21:01.781,,,,,,,,,,,,,,,,,,,,,,,,,,,,,,,,,,,,,,/muse/elements/blink
2023-08-29 17:21:01.869,,,,,,,,,,,,,,,,,,,,,,,,,,,,,,,,,,,,,,/muse/elements/jaw_clench
2023-08-29 17:21:01.958,,,,,,,,,,,,,,,,,,,,,,,,,,,,,,,,,,,,,,/muse/elements/blink
2023-08-29 17:21:02.047,,,,,,,,,,,,,,,,,,,,,,,,,,,,,,,,,,,,,,/muse/elements/jaw_clench
2023-08-29 17:21:02.504,0,0.3710224280625178,0.5003231686688506,0.1880385163513132,0,0.01974920012372915,-0.02687373747677711,0.02650553623745627,0,0.139385502070483,0.3287872886202903,0.4577118801172528,0,1.137488660559232,0.3766227599160083,0.8517443425666483,0,0.721744904924971,0.2532964535913643,0.3515695529983337,1600.03663003663,797.8021978021978,788.5347985347986,926.7399267399268,820.7692307692308,-0.588318,-0.005188,0.805847,2.213135,-3.155212,-1.218719,1,4,1,1,1,85.000000
2023-08-29 17:21:02.662,,,,,,,,,,,,,,,,,,,,,,,,,,,,,,,,,,,,,,/muse/elements/blink
2023-08-29 17:21:02.902,,,,,,,,,,,,,,,,,,,,,,,,,,,,,,,,,,,,,,/muse/elements/blink
2023-08-29 17:21:03.276,,,,,,,,,,,,,,,,,,,,,,,,,,,,,,,,,,,,,,/muse/elements/blink
2023-08-29 17:21:03.504,0,0.09203433931658578,0.01431214956775892,0.1704187377173341,0,0.07780604276665019,0.04718995087186102,0.3015803137771035,0,0.2404742840308166,0.4347295692823873,0.2451730521628329,0,1.04679763651348,0.5216097029561284,0.5530010274088659,0,0.6896660252528216,0.1764554172323347,0.2147721579721962,111.2087912087912,809.0842490842491,814.3223443223443,1032.307692307692,944.8717948717949,-0.593018,-0.000793,0.798950,2.691650,-2.729034,3.828125,1,4,1,1,1,85.000000
2023-08-29 17:21:03.784,,,,,,,,,,,,,,,,,,,,,,,,,,,,,,,,,,,,,,/muse/elements/blink
2023-08-29 17:21:04.111,,,,,,,,,,,,,,,,,,,,,,,,,,,,,,,,,,,,,,/muse/elements/blink
2023-08-29 17:21:04.308,,,,,,,,,,,,,,,,,,,,,,,,,,,,,,,,,,,,,,/muse/elements/blink
2023-08-29 17:21:04.484,,,,,,,,,,,,,,,,,,,,,,,,,,,,,,,,,,,,,,/muse/elements/blink
2023-08-29 17:21:04.504,0,0.4305549805080597,0.05252087544064953,0.1929849898083807,0,-0.2146307092434069,0.253894199432066,0.2999221820094268,0,0.5594486196898683,0.5302624940652727,0.3316403116935874,0,0.8921894193487075,0.53863029850011,0.5328083440747023,0,0.6332691995233951,0.3434751838635587,0.227667528512215,1365.128205128205,803.8461538461539,810.2930402930403,808.6813186813187,757.5091575091575,-0.591736,0.012573,0.803162,2.953339,-3.872986,1.846771,1,4,1,1,1,85.000000
2023-08-29 17:21:04.721,,,,,,,,,,,,,,,,,,,,,,,,,,,,,,,,,,,,,,/muse/elements/blink
2023-08-29 17:21:04.896,,,,,,,,,,,,,,,,,,,,,,,,,,,,,,,,,,,,,,/muse/elements/blink
2023-08-29 17:21:05.504,0,0.5137239870987715,0.5376636727124096,0.1577947099854546,0,-0.3000841715839149,0.3262159681607962,0.2806826376655878,0,0.4814015840940685,0.4069734320157208,0.3287909947155609,0,0.9978619757004767,0.4378993128799572,0.527781423576509,0,0.5897071462635115,0.4390033290184889,0.254937257530531,1432.014652014652,801.025641025641,788.1318681318681,841.3186813186813,774.0293040293041,-0.587158,0.009705,0.801941,1.390686,-3.723450,-0.755157,1,4,1,1,1,90.000000
2023-08-29 17:21:05.616,,,,,,,,,,,,,,,,,,,,,,,,,,,,,,,,,,,,,,/muse/elements/blink
2023-08-29 17:21:06.225,,,,,,,,,,,,,,,,,,,,,,,,,,,,,,,,,,,,,,/muse/elements/blink
2023-08-29 17:21:06.504,0,0.5018476403971799,0.719334619711843,1.129161602375228,0,-0.03767169726017269,0.1679630110263428,0.6008676970035105,0,0.5153851329649524,0.4496248180606789,0.6779810241487843,0,0.9422154873639939,0.5596630737883741,0.7624220338909404,0,0.6528264931283219,0.3451505295142474,0.5239776642173632,1621.794871794872,821.5750915750916,791.7582417582418,917.0695970695971,851.3919413919414,-0.576294,0.021851,0.807739,1.689758,-3.850555,-0.927124,1,4,1,1,1,90.000000
2023-08-29 17:21:06.574,,,,,,,,,,,,,,,,,,,,,,,,,,,,,,,,,,,,,,/muse/elements/blink
2023-08-29 17:21:06.751,,,,,,,,,,,,,,,,,,,,,,,,,,,,,,,,,,,,,,/muse/elements/blink
2023-08-29 17:21:06.926,,,,,,,,,,,,,,,,,,,,,,,,,,,,,,,,,,,,,,/muse/elements/blink
2023-08-29 17:21:07.273,,,,,,,,,,,,,,,,,,,,,,,,,,,,,,,,,,,,,,/muse/elements/blink
2023-08-29 17:21:07.449,,,,,,,,,,,,,,,,,,,,,,,,,,,,,,,,,,,,,,/muse/elements/blink
2023-08-29 17:21:07.505,0,0.4534158925165566,0.7428637345564749,1.034067481718047,0,0.2338274315156195,0.5647082030916085,0.6551503733324074,0,0.664136311146504,0.8295008506053627,0.6771560236014477,0,0.9858611658878599,0.6340730045485657,0.780340655819408,0,0.6584679558837249,0.3141680097797287,0.5966861305391412,1214.029304029304,810.6959706959707,807.8754578754579,701.9047619047619,650.7326007326008,-0.647888,0.036560,0.751160,2.056122,-7.566528,-1.211243,1,4,1,1,1,90.000000
2023-08-29 17:21:07.975,,,,,,,,,,,,,,,,,,,,,,,,,,,,,,,,,,,,,,/muse/elements/blink
2023-08-29 17:21:08.393,,,,,,,,,,,,,,,,,,,,,,,,,,,,,,,,,,,,,,/muse/elements/blink
2023-08-29 17:21:08.504,0,0.4716513632003693,0.382462696626838,1.034067481718047,0,0.3690382663900768,0.2680397474889507,0.6551503733324074,0,0.4519481065396948,0.7691918273410283,0.6771560236014477,0,0.935890307202607,0.4197591671871867,0.780340655819408,0,0.7549117405671223,0.2710378197172331,0.5966861305391412,1365.531135531136,795.7875457875458,797.3992673992674,774.8351648351648,647.5091575091575,-0.621460,0.018250,0.776672,2.078552,-3.723450,-0.605621,1,4,1,1,1,90.000000
2023-08-29 17:21:08.767,,,,,,,,,,,,,,,,,,,,,,,,,,,,,,,,,,,,,,/muse/elements/blink
2023-08-29 17:21:09.095,,,,,,,,,,,,,,,,,,,,,,,,,,,,,,,,,,,,,,/muse/elements/blink
2023-08-29 17:21:09.503,0,0.6536289423438283,0.7297987903288955,1.034067481718047,0,0.07046043240495097,0.1983326850708699,0.6551503733324074,0,0.4450287349824216,0.741699619542582,0.6771560236014477,0,0.8590600576596791,0.5279164909289024,0.780340655819408,0,0.6857631675619179,0.1705898913346044,0.5966861305391412,1385.274725274725,799.0109890109891,803.040293040293,826.007326007326,839.3040293040293,-0.620667,0.018738,0.779358,2.235565,-2.871094,0.328979,1,4,1,1,2,90.000000
2023-08-29 17:21:10.235,,,,,,,,,,,,,,,,,,,,,,,,,,,,,,,,,,,,,,/muse/elements/blink
2023-08-29 17:21:10.513,0,0.5191873219505928,0.6014483954486386,1.034067481718047,0,-0.04765302199311471,-0.3567802499923763,0.6551503733324074,0,0.3981014045722304,0.4220979340271585,0.6771560236014477,0,1.019906657444371,0.7391690054772456,0.780340655819408,0,0.7231402211760684,0.3669947989274945,0.5966861305391412,475.0549450549451,782.4908424908425,789.7435897435897,599.9633699633699,516.959706959707,-0.604065,0.028076,0.782654,2.497253,-4.059906,-0.291595,1,4,1,1,2,90.000000
2023-08-29 17:21:10.611,,,,,,,,,,,,,,,,,,,,,,,,,,,,,,,,,,,,,,/muse/elements/blink
2023-08-29 17:21:10.810,,,,,,,,,,,,,,,,,,,,,,,,,,,,,,,,,,,,,,/muse/elements/blink
2023-08-29 17:21:11.030,,,,,,,,,,,,,,,,,,,,,,,,,,,,,,,,,,,,,,/muse/elements/blink
2023-08-29 17:21:11.272,,,,,,,,,,,,,,,,,,,,,,,,,,,,,,,,,,,,,,/muse/elements/blink
2023-08-29 17:21:11.503,0,0.2267628343055995,0.1722548091919616,0.701530992468785,0,-0.0340907194615906,-0.1952651909268375,0.6261835581085941,0,0.2626055252471109,0.5584509589787277,0.4117609225054811,0,1.020989973576405,0.7178572767325704,0.7614538476215971,0,0.6789772139960822,0.3777162455123418,0.685909842329269,0,806.6666666666667,789.3406593406594,956.959706959707,865.4945054945056,-0.599487,0.029358,0.790833,1.629944,-3.132782,0.089722,1,4,1,1,1,90.000000
2023-08-29 17:21:11.707,,,,,,,,,,,,,,,,,,,,,,,,,,,,,,,,,,,,,,/muse/elements/blink
2023-08-29 17:21:11.951,,,,,,,,,,,,,,,,,,,,,,,,,,,,,,,,,,,,,,/muse/elements/blink
2023-08-29 17:21:12.512,0,0.1953545019997407,0.1571133089602943,0.5525759460944814,0,-0.1030667600535206,-0.3089634862185032,0.2709985075800154,0,0.3921394629536961,0.5115105470935282,0.6486916878740073,0,0.9657165628026022,0.6791651713079137,0.851355277128212,0,0.6473289986858137,0.3727513166368411,0.5293774053278419,0,772.014652014652,814.7252747252747,548.7912087912088,535.4945054945055,-0.596741,0.029968,0.790710,2.093506,-3.461761,0.306549,1,4,1,1,1,90.000000
2023-08-29 17:21:13.266,,,,,,,,,,,,,,,,,,,,,,,,,,,,,,,,,,,,,,/muse/elements/blink
2023-08-29 17:21:13.503,0,0.2900534500145718,0.3389011444361419,0.4357908858645403,0,-0.1432538041275191,-0.7428836547238961,0.4073591486005233,0,0.2016343196696907,0.2752086543459522,0.6750414778468194,0,0.9431681052864005,0.6006692329954733,0.7354938305182951,0,0.6055380066078511,0.3799166012077531,0.5149183177442227,0,800.6227106227107,800.2197802197802,563.2967032967033,564.9084249084249,-0.582886,0.030640,0.803345,2.153320,-4.216919,-0.127106,1,4,1,1,1,90.000000
2023-08-29 17:21:14.227,,,,,,,,,,,,,,,,,,,,,,,,,,,,,,,,,,,,,,/muse/elements/blink
2023-08-29 17:21:14.503,0,0.3897758135795301,0.351831083335063,0.1818180012342046,0,-0.217378486597582,-0.4644822688422408,0.3028408209113715,0,0.3146318013871967,0.3460226283727331,0.5980923645256816,0,0.8772712810043454,0.5383662408042393,0.54710213995864,0,0.5669262507151706,0.225991438398535,0.3725508573099517,143.8461538461538,790.952380952381,803.4432234432235,534.6886446886447,480.6959706959707,-0.581543,0.037231,0.801636,1.622467,-3.633728,-0.560760,1,4,1,1,1,90.000000
2023-08-29 17:21:14.705,,,,,,,,,,,,,,,,,,,,,,,,,,,,,,,,,,,,,,/muse/elements/blink
2023-08-29 17:21:15.453,,,,,,,,,,,,,,,,,,,,,,,,,,,,,,,,,,,,,,/muse/elements/blink
2023-08-29 17:21:15.503,0,0.3301097497893512,0.3601066517392165,0.1857387027937643,0,0.05100004142914831,-0.2327441242505989,0.04917805431317216,0,0.5694589923238406,0.4262607906411861,0.4672184004277388,0,0.8531210283908498,0.7252110636145899,0.5101311248872437,0,0.5124498461002926,0.4328133537076401,0.2163612633128046,484.3223443223443,800.6227106227107,792.5641025641025,618.0952380952381,622.5274725274726,-0.588806,0.035522,0.805176,1.420593,-3.611298,-0.590668,1,4,1,1,1,90.000000
2023-08-29 17:21:16.159,,,,,,,,,,,,,,,,,,,,,,,,,,,,,,,,,,,,,,/muse/elements/blink
2023-08-29 17:21:16.401,,,,,,,,,,,,,,,,,,,,,,,,,,,,,,,,,,,,,,/muse/elements/blink
2023-08-29 17:21:16.503,0,0.5757259311192169,0.6310787112169075,0.7109622887040203,0,0.0843088140537322,0.2184190531390029,0.5718656351866472,0,0.5910574935374723,0.4655057447622254,0.6161118515129856,0,1.073612989848207,0.6822947637547052,0.6840190113653948,0,0.5912982681913432,0.4661109472760587,0.5423110367264619,936.007326007326,829.6336996336996,816.3369963369963,643.8827838827839,520.1831501831502,-0.587402,0.036072,0.795593,1.749573,-3.065491,-1.061707,1,4,1,1,1,90.000000
2023-08-29 17:21:16.599,,,,,,,,,,,,,,,,,,,,,,,,,,,,,,,,,,,,,,/muse/elements/blink
2023-08-29 17:21:17.104,,,,,,,,,,,,,,,,,,,,,,,,,,,,,,,,,,,,,,/muse/elements/blink
2023-08-29 17:21:17.279,,,,,,,,,,,,,,,,,,,,,,,,,,,,,,,,,,,,,,/muse/elements/blink
2023-08-29 17:21:17.508,0,0.4201255236445557,0.6489719544670161,0.3692185968408716,0,-0.1931103937759575,0.4192522031895717,0.5626372719718784,0,0.3288129479268979,0.4133813735354219,0.6747672809048012,0,1.172674791336265,0.7360095864467048,0.7027554971617775,0,0.7709715724847076,0.4918578857478146,0.5408851968053019,0,786.9230769230769,787.3260073260074,551.6117216117216,408.5714285714286,-0.586853,0.039978,0.798462,1.914062,-3.274841,-1.099091,1,4,1,1,1,90.000000
2023-08-29 17:21:17.540,,,,,,,,,,,,,,,,,,,,,,,,,,,,,,,,,,,,,,/muse/elements/blink
2023-08-29 17:21:17.805,,,,,,,,,,,,,,,,,,,,,,,,,,,,,,,,,,,,,,/muse/elements/blink
2023-08-29 17:21:18.221,,,,,,,,,,,,,,,,,,,,,,,,,,,,,,,,,,,,,,/muse/elements/blink
2023-08-29 17:21:18.397,,,,,,,,,,,,,,,,,,,,,,,,,,,,,,,,,,,,,,/muse/elements/blink
2023-08-29 17:21:18.503,0,-0.04127443466564298,0.2814141106376925,0.3998113458783281,0,-0.0561963278702484,0.06264190477905285,0.3695695150007149,0,0.3116047424017584,0.5047537534594847,0.5829360551009503,0,1.174565662750133,0.6169189523399262,0.7468089611800034,0,0.8316342447388415,0.3634802965425382,0.6172510837011285,11.28205128205128,777.2527472527473,803.4432234432235,566.1172161172161,548.7912087912088,-0.588501,0.037842,0.800720,1.315918,-3.431854,-0.747681,1,4,1,1,1,90.000000
2023-08-29 17:21:18.637,,,,,,,,,,,,,,,,,,,,,,,,,,,,,,,,,,,,,,/muse/elements/blink
2023-08-29 17:21:19.357,,,,,,,,,,,,,,,,,,,,,,,,,,,,,,,,,,,,,,/muse/elements/blink
2023-08-29 17:21:19.503,0,0.006315057616899658,0.07981744391186639,0.4949470714377199,0,-0.2890413505330244,-0.2270436372729837,0.2311523826860443,0,-0.1757894531718536,0.3779346300960595,0.451544044701976,0,0.8346018076700209,0.6234143848095285,0.6571912954425762,0,0.7039240509831649,0.4518470892713832,0.41917754049299,0,778.0586080586081,818.3516483516484,579.0109890109891,481.9047619047619,-0.581665,0.034607,0.802551,1.981354,-3.521576,-0.523376,1,4,1,1,1,90.000000
2023-08-29 17:21:20.079,,,,,,,,,,,,,,,,,,,,,,,,,,,,,,,,,,,,,,/muse/elements/blink
2023-08-29 17:21:20.235,,,,,,,,,,,,,,,,,,,,,,,,,,,,,,,,,,,,,,/muse/elements/blink
2023-08-29 17:21:20.455,,,,,,,,,,,,,,,,,,,,,,,,,,,,,,,,,,,,,,/muse/elements/blink
2023-08-29 17:21:20.510,0,0.261427337049133,0.5325937971237875,0.8207760818292312,0,0.07318525583342084,-0.02956205037202492,0.5195397921333804,0,0.1350250214208702,0.5120158460745551,0.8043356361940804,0,0.9039830511430034,0.7901483031225179,0.7882876739785015,0,0.8332480311212157,0.4316519006634947,0.4370831165887693,0,796.996336996337,788.5347985347986,560.4761904761905,521.3919413919414,-0.597534,0.043701,0.799438,1.562653,-4.643097,-0.635529,1,4,1,1,1,90.000000
2023-08-29 17:21:21.373,,,,,,,,,,,,,,,,,,,,,,,,,,,,,,,,,,,,,,/muse/elements/blink
2023-08-29 17:21:21.373,,,,,,,,,,,,,,,,,,,,,,,,,,,,,,,,,,,,,,/muse/elements/jaw_clench
2023-08-29 17:21:21.503,0,0.5557107620921765,1.044078259087067,1.017973489270135,0,0.328236135163175,0.2355260810880881,0.5954113970241824,0,0.7215359471943033,0.5589412376450373,0.8115221510930195,0,1.058986601825008,0.7462373788522649,0.855536949437083,0,0.7961436278454042,0.3504398506711446,0.5077610723311204,0,790.1465201465202,775.2380952380953,565.3113553113553,484.3223443223443,-0.582092,0.040161,0.793274,1.899109,-3.207550,-0.485992,1,4,1,1,1,90.000000
2023-08-29 17:21:22.249,,,,,,,,,,,,,,,,,,,,,,,,,,,,,,,,,,,,,,/muse/elements/blink
2023-08-29 17:21:22.503,0,0.2617312256904359,0.572254427113519,0.7248165391079144,0,0.0536441553484713,0.01456855483862406,0.5085059387802435,0,0.3697528805398364,0.2727184663387637,0.8966874356030491,0,1.087784571873458,0.5480456468929072,0.7995477046112784,0,0.6573868247072374,0.4226313553768208,0.5095430865441689,0,785.3113553113553,787.7289377289378,619.3040293040293,598.7545787545788,-0.581116,0.044678,0.807983,1.555176,-4.254303,0.493469,1,4,1,1,1,90.000000
2023-08-29 17:21:23.214,,,,,,,,,,,,,,,,,,,,,,,,,,,,,,,,,,,,,,/muse/elements/blink
2023-08-29 17:21:23.477,,,,,,,,,,,,,,,,,,,,,,,,,,,,,,,,,,,,,,/muse/elements/blink
2023-08-29 17:21:23.503,0,0.1336622820992439,0.3365046110255546,0.5724140153392638,0,-0.2531331621732735,-0.5128208587397889,0.2646146838399513,0,0.2528606319454318,0.1562765073462459,0.8040239947933194,0,1.004713459959237,0.6386752014528118,0.7371534847614098,0,0.5509903046687665,0.4508175605207925,0.5436334295598243,0,798.2051282051282,811.0989010989011,572.1611721611722,515.7509157509157,-0.576477,0.042297,0.806091,1.443024,-4.822540,0.074768,1,4,1,1,1,90.000000
2023-08-29 17:21:23.717,,,,,,,,,,,,,,,,,,,,,,,,,,,,,,,,,,,,,,/muse/elements/blink
2023-08-29 17:21:23.913,,,,,,,,,,,,,,,,,,,,,,,,,,,,,,,,,,,,,,/muse/elements/blink
2023-08-29 17:21:24.069,,,,,,,,,,,,,,,,,,,,,,,,,,,,,,,,,,,,,,/muse/elements/blink
2023-08-29 17:21:24.397,,,,,,,,,,,,,,,,,,,,,,,,,,,,,,,,,,,,,,/muse/elements/blink
2023-08-29 17:21:24.503,0,0.3283767599187909,0.7644383240871269,0.61745827322409,0,0.04771547481368704,-0.1261315692764021,0.3001197078826801,0,0.3393394791321225,0.5191438448057225,0.7146901663857156,0,1.022492612463649,0.7349885159109539,0.7671171079190415,0,0.6851013627194896,0.6118432587366873,0.5286924223181901,244.981684981685,765.5677655677656,796.1904761904763,736.959706959707,796.996336996337,-0.583801,0.040161,0.799316,2.243042,-3.708496,-0.500946,1,4,1,1,1,90.000000
2023-08-29 17:21:24.832,,,,,,,,,,,,,,,,,,,,,,,,,,,,,,,,,,,,,,/muse/elements/blink
2023-08-29 17:21:25.029,,,,,,,,,,,,,,,,,,,,,,,,,,,,,,,,,,,,,,/muse/elements/blink
2023-08-29 17:21:25.205,,,,,,,,,,,,,,,,,,,,,,,,,,,,,,,,,,,,,,/muse/elements/blink
2023-08-29 17:21:25.503,0,0.5568797612901187,0.8529590844123542,0.132557725973514,0,0.2036266804018407,0.07008319815952681,0.4090367399709113,0,0.4407108893851885,0.5311188262524458,0.294267366943273,0,0.9831478053437377,0.6919532895041152,0.693962800419738,0,0.6671762283392674,0.5491774806120183,0.3767833774785568,66.48351648351648,773.6263736263736,788.5347985347986,674.1025641025641,640.2564102564103,-0.580383,0.045044,0.797852,1.981354,-3.162689,-0.157013,1,4,1,1,1,90.000000
2023-08-29 17:21:25.726,,,,,,,,,,,,,,,,,,,,,,,,,,,,,,,,,,,,,,/muse/elements/blink
2023-08-29 17:21:25.902,,,,,,,,,,,,,,,,,,,,,,,,,,,,,,,,,,,,,,/muse/elements/blink
2023-08-29 17:21:26.503,0,0.04072759143525571,-0.09168659776837816,0.2969062957965811,0,-0.1109902537907253,-0.0922343316405296,0.4991964723899343,0,0.3978354482082282,0.3031929438871958,0.4957349404154309,0,0.8705631284064782,0.7215812454298026,0.813470313649288,0,0.7317186574208624,0.3651013856296896,0.4576546210242933,0,782.893772893773,801.4285714285714,609.2307692307693,586.2637362637363,-0.590515,0.041321,0.801697,1.689758,-3.237457,-0.269165,1,4,1,1,1,85.000000
2023-08-29 17:21:26.663,,,,,,,,,,,,,,,,,,,,,,,,,,,,,,,,,,,,,,/muse/elements/blink
2023-08-29 17:21:26.859,,,,,,,,,,,,,,,,,,,,,,,,,,,,,,,,,,,,,,/muse/elements/blink
2023-08-29 17:21:27.037,,,,,,,,,,,,,,,,,,,,,,,,,,,,,,,,,,,,,,/muse/elements/blink
2023-08-29 17:21:27.503,0,-0.06494919444388386,0.2627077438948425,0.2368205484853984,0,-0.1582620112193463,0.1606026006318514,0.5821072674973903,0,0.3417914164846443,0.3413476192594925,0.5649804858945215,0,0.8949579140943855,0.7884008598084491,0.8496774016067437,0,0.8043657023504336,0.367811251800705,0.4192628292396023,239.7435897435898,788.1318681318681,777.6556776556777,800.2197802197802,828.8278388278388,-0.589783,0.040894,0.797058,1.801910,-2.781372,-0.216827,1,4,1,1,1,85.000000
2023-08-29 17:21:27.579,,,,,,,,,,,,,,,,,,,,,,,,,,,,,,,,,,,,,,/muse/elements/blink
2023-08-29 17:21:27.733,,,,,,,,,,,,,,,,,,,,,,,,,,,,,,,,,,,,,,/muse/elements/blink
2023-08-29 17:21:28.508,0,0.05156175384964964,0.5730428843831281,0.1083564297746635,0,-0.202121872192174,0.204867539787499,0.6486272947825001,0,0.0003560262109363985,0.2851699192493821,0.3526887232827194,0,0.987676318053993,0.6764062246568915,0.6944643078680287,0,0.7920367384251947,0.3646590998956535,0.3496648287169525,219.5970695970696,780.0732600732601,800.6227106227107,717.6190476190476,722.0512820512821,-0.583557,0.045715,0.796265,1.861725,-3.663635,-0.478516,1,4,1,1,1,85.000000
2023-08-29 17:21:28.691,,,,,,,,,,,,,,,,,,,,,,,,,,,,,,,,,,,,,,/muse/elements/blink
2023-08-29 17:21:28.951,,,,,,,,,,,,,,,,,,,,,,,,,,,,,,,,,,,,,,/muse/elements/blink
2023-08-29 17:21:29.103,,,,,,,,,,,,,,,,,,,,,,,,,,,,,,,,,,,,,,/muse/elements/jaw_clench
2023-08-29 17:21:29.191,,,,,,,,,,,,,,,,,,,,,,,,,,,,,,,,,,,,,,/muse/elements/blink
2023-08-29 17:21:29.511,0,-0.1396214188423883,0.2770504547598585,0.1587588801626189,0,0.02121710548288869,-0.2163062158698665,0.3975874588386175,0,0.2205223919776892,0.2118309300747054,0.6833658231611036,0,1.015630190394479,0.6830166356738666,0.7941893696615512,0,0.6802903324336608,0.1866591480141334,0.566350737017577,16.11721611721612,790.952380952381,808.2783882783883,655.5677655677656,647.1062271062272,-0.585388,0.046326,0.801453,1.330872,-3.753357,0.231781,1,4,1,1,1,85.000000
2023-08-29 17:21:29.714,,,,,,,,,,,,,,,,,,,,,,,,,,,,,,,,,,,,,,/muse/elements/blink
2023-08-29 17:21:30.084,,,,,,,,,,,,,,,,,,,,,,,,,,,,,,,,,,,,,,/muse/elements/blink
2023-08-29 17:21:30.304,,,,,,,,,,,,,,,,,,,,,,,,,,,,,,,,,,,,,,/muse/elements/blink
2023-08-29 17:21:30.502,,,,,,,,,,,,,,,,,,,,,,,,,,,,,,,,,,,,,,/muse/elements/blink
2023-08-29 17:21:30.512,0,0.0917942155180191,0.3524746360853624,0.3102282949281851,0,0.004337513216930847,-0.2394294548902137,0.4522484775466876,0,0.3474918581300129,0.2140381990164657,0.7617567738885651,0,1.054147440688118,0.6591232129379508,0.8487279549066887,0,0.516397024847325,0.3630005090935951,0.5020945290635649,398.0952380952381,808.6813186813187,805.0549450549451,875.1648351648352,877.5824175824176,-0.590698,0.052795,0.796509,1.801910,-3.379517,-0.687866,1,4,1,1,1,85.000000
2023-08-29 17:21:30.699,,,,,,,,,,,,,,,,,,,,,,,,,,,,,,,,,,,,,,/muse/elements/blink
2023-08-29 17:21:31.025,,,,,,,,,,,,,,,,,,,,,,,,,,,,,,,,,,,,,,/muse/elements/blink
2023-08-29 17:21:31.503,0,0.3213546201325324,0.4293419475708513,0.6350802692265582,0,0.04993286291690174,-0.3258248978717654,0.5998274742217994,0,0.2734636075429078,0.1846055090574523,0.6838514361264665,0,1.105371178178587,0.7500787385323227,0.7141917146847222,0,0.5788749544833403,0.4658306780362375,0.4140150245187039,0,791.3553113553114,787.3260073260074,560.0732600732601,495.6043956043956,-0.602051,0.051575,0.790405,1.457977,-6.302948,-1.054230,1,4,1,1,1,85.000000
2023-08-29 17:21:31.615,,,,,,,,,,,,,,,,,,,,,,,,,,,,,,,,,,,,,,/muse/elements/blink
2023-08-29 17:21:31.897,,,,,,,,,,,,,,,,,,,,,,,,,,,,,,,,,,,,,,/muse/elements/blink
2023-08-29 17:21:32.330,,,,,,,,,,,,,,,,,,,,,,,,,,,,,,,,,,,,,,/muse/elements/blink
2023-08-29 17:21:32.503,0,0.2234386655175868,0.1821856546068906,0.7644075200644022,0,0.176979004640983,-0.07647179625831653,0.5811305159784581,0,0.3712602281670442,0.1003751256983602,0.6725624531941371,0,0.9211854730323723,0.6651280786575505,0.7120231595953069,0,0.6387691269610687,0.5421607743521459,0.4659281728980321,176.8864468864469,788.1318681318681,785.3113553113553,720.8424908424909,855.8241758241759,-0.593750,0.048889,0.789856,1.742096,-3.237457,-0.575714,1,4,1,1,1,85.000000
2023-08-29 17:21:32.527,,,,,,,,,,,,,,,,,,,,,,,,,,,,,,,,,,,,,,/muse/elements/blink
2023-08-29 17:21:33.222,,,,,,,,,,,,,,,,,,,,,,,,,,,,,,,,,,,,,,/muse/elements/blink
2023-08-29 17:21:33.464,,,,,,,,,,,,,,,,,,,,,,,,,,,,,,,,,,,,,,/muse/elements/blink
2023-08-29 17:21:33.503,0,0.258614314693619,0.3913731415882095,0.3633003658099394,0,-0.09817000633059758,-0.07710912784570133,0.3283537970875814,0,0.3720535915002872,0.2865893513544244,0.7776282843016895,0,0.9093134333164383,0.6310359348166155,0.6500364212794811,0,0.852474429659464,0.4767402186202129,0.4166488057494091,718.4249084249085,802.6373626373627,805.0549450549451,930.7692307692308,1028.278388278388,-0.599915,0.042236,0.794373,1.996307,-3.588867,0.239258,1,4,1,1,1,85.000000
2023-08-29 17:21:34.503,0,0.4734813084513588,0.5516201501030523,0.3749605241474721,0,-0.2062970247739655,-0.3117582093606631,0.3024579097103285,0,0.2229904333573633,0.1635493090287497,0.7095471685455452,0,0.8604052297844135,0.691268968849682,0.7606546402138287,0,0.8149019037294261,0.4782905867640466,0.6149968610087395,0,786.5201465201466,792.5641025641025,593.5164835164835,450.4761904761905,-0.592773,0.052917,0.802185,1.876678,-6.153412,1.659851,1,4,1,1,1,85.000000
2023-08-29 17:21:35.052,,,,,,,,,,,,,,,,,,,,,,,,,,,,,,,,,,,,,,/muse/elements/jaw_clench
2023-08-29 17:21:35.379,,,,,,,,,,,,,,,,,,,,,,,,,,,,,,,,,,,,,,/muse/elements/blink
2023-08-29 17:21:35.503,0,0.5402294015878187,0.3836047112763217,0.7998100291144531,0,-0.06960849487418289,0.03352696367370087,0.6240730015401209,0,0.3042695978563736,0.3173830313439386,1.090597760084993,0,0.8593174849158104,0.7457816702842779,0.6920374059317298,0,0.6949585309142416,0.4621002464926914,0.6453477069073547,237.7289377289377,790.5494505494506,788.9377289377289,776.0439560439561,845.3479853479854,-0.588745,0.053223,0.790771,2.003784,-3.730927,-0.695343,1,4,1,1,1,85.000000
2023-08-29 17:21:35.988,,,,,,,,,,,,,,,,,,,,,,,,,,,,,,,,,,,,,,/muse/elements/blink
2023-08-29 17:21:36.503,0,0.1328269771989941,0.01000319914503674,0.7741388979762936,0,-0.04439125640513144,-0.05921720964020218,0.5239792102478934,0,0.4570106590860232,0.4189154226615145,1.080539368262422,0,0.9879026572300386,0.6481828218467485,0.5406101529299181,0,0.7385197704974807,0.4503538417266287,0.4129510655070908,1278.095238095238,813.5164835164835,805.0549450549451,973.4798534798535,1011.355311355311,-0.573242,0.066589,0.803955,1.742096,-3.200073,-1.555176,1,4,1,1,1,85.000000
2023-08-29 17:21:37.312,,,,,,,,,,,,,,,,,,,,,,,,,,,,,,,,,,,,,,/muse/elements/blink
2023-08-29 17:21:37.503,0,0.2625089018866283,0.3925653616366848,0.01105607081069082,0,-0.2072879655158081,0.1602310761462459,-0.07347623731978908,0,0.6421973866835843,0.3934182848050893,0.4126551437470889,0,1.064548126275418,0.6219955865644194,0.5297942005440452,0,0.7113934114327612,0.2913671089310689,0.4343397418445207,18.13186813186813,771.6117216117216,772.8205128205128,661.2087912087912,648.7179487179487,-0.578918,0.057983,0.809082,2.250519,-2.347717,0.299072,1,4,1,1,1,85.000000
2023-08-29 17:21:37.509,,,,,,,,,,,,,,,,,,,,,,,,,,,,,,,,,,,,,,/muse/elements/blink
2023-08-29 17:21:38.249,,,,,,,,,,,,,,,,,,,,,,,,,,,,,,,,,,,,,,/muse/elements/blink
2023-08-29 17:21:38.503,0,0.2424767105796653,0.7049773810713789,0.00433290690490153,0,-0.173664637194395,0.2298541401757168,0.1418794682694185,0,0.6708376814218416,0.336059139043046,0.5066119743112436,0,1.039022805412996,0.6545647797807361,0.7006603036511817,0,0.7850573353084069,0.3408818973941984,0.3161057547524445,435.1648351648352,790.1465201465202,791.3553113553114,877.985347985348,905.7875457875458,-0.575195,0.073669,0.805359,2.243042,-3.342133,-0.261688,1,4,1,1,1,85.000000
2023-08-29 17:21:38.617,,,,,,,,,,,,,,,,,,,,,,,,,,,,,,,,,,,,,,/muse/elements/blink
2023-08-29 17:21:38.944,,,,,,,,,,,,,,,,,,,,,,,,,,,,,,,,,,,,,,/muse/elements/jaw_clench
2023-08-29 17:21:39.503,0,-0.208845196748652,-0.2113451996099082,0.0130333949647754,0,-0.1338920890412965,-0.03554841419914356,0.3034505920990376,0,0.265770447121143,0.1781906605398571,0.6188228415542402,0,1.027508693349423,0.6371952374519544,0.7715681928753262,0,0.6287031947916875,0.4353203090653098,0.4080844908497594,242.5641025641026,781.2820512820513,792.967032967033,883.2234432234433,780.4761904761905,-0.565308,0.074646,0.814880,1.697235,-3.648682,0.082245,1,4,1,1,1,85.000000
2023-08-29 17:21:39.645,,,,,,,,,,,,,,,,,,,,,,,,,,,,,,,,,,,,,,/muse/elements/blink
2023-08-29 17:21:40.081,,,,,,,,,,,,,,,,,,,,,,,,,,,,,,,,,,,,,,/muse/elements/blink
2023-08-29 17:21:40.258,,,,,,,,,,,,,,,,,,,,,,,,,,,,,,,,,,,,,,/muse/elements/blink
2023-08-29 17:21:40.435,,,,,,,,,,,,,,,,,,,,,,,,,,,,,,,,,,,,,,/muse/elements/blink
2023-08-29 17:21:40.514,0,0.1861494828805432,0.3564026261603697,-0.5179618698714751,0,-0.1037524261619895,-0.2163043392783512,0.1319624144855862,0,0.3275431492416236,0.2303024349854865,0.4298319709475804,0,0.8830115923129371,0.6200196016335133,0.630474625819031,0,0.4949233407342664,0.4145217131195176,0.5554597833219099,1446.117216117216,786.5201465201466,785.7142857142858,973.4798534798535,931.5750915750916,-0.635986,0.031250,0.770874,-1.480408,16.269531,-3.805695,1,4,1,1,1,85.000000
2023-08-29 17:21:40.765,,,,,,,,,,,,,,,,,,,,,,,,,,,,,,,,,,,,,,/muse/elements/blink
2023-08-29 17:21:41.503,0,0.6939037809649323,0.6939356431166226,1.060780482434057,0,-0.2143260451932935,0.1603286957414508,0.7268137807808179,0,0.4998151760157155,0.6535861088752509,0.5476409390097419,0,0.7972054162691929,0.6209037996647581,0.601309379839301,0,0.4117142081659133,0.2613671559731124,0.4458335517864257,1130.21978021978,804.2490842490843,771.6117216117216,939.2307692307693,830.0366300366301,-0.634033,-0.015076,0.780396,5.233765,-12.546082,3.551483,1,4,1,1,1,85.000000
2023-08-29 17:21:41.570,,,,,,,,,,,,,,,,,,,,,,,,,,,,,,,,,,,,,,/muse/elements/blink
2023-08-29 17:21:42.503,0,0.81294571322842,0.6666283730771126,0.8238615173598302,0,0.1336546437734681,0.1312508931195452,0.5892569611558637,0,0.5123073065131463,0.606947903818866,0.5384875052837549,0,0.9724947044767123,0.6090516682085457,0.5718782346478291,0,0.5090104244853976,0.25482463636004,0.3843038946773357,698.6813186813187,784.5054945054945,808.6813186813187,923.919413919414,1130.21978021978,-0.604065,0.016785,0.794678,3.454285,1.360779,0.201874,1,4,1,1,1,85.000000
2023-08-29 17:21:42.616,,,,,,,,,,,,,,,,,,,,,,,,,,,,,,,,,,,,,,/muse/elements/blink
2023-08-29 17:21:43.204,,,,,,,,,,,,,,,,,,,,,,,,,,,,,,,,,,,,,,/muse/elements/blink
2023-08-29 17:21:43.401,,,,,,,,,,,,,,,,,,,,,,,,,,,,,,,,,,,,,,/muse/elements/blink
2023-08-29 17:21:43.503,0,0.592559117438788,0.8003946633179496,0.3584594585139277,0,0.1162903704142938,0.1659417419143444,0.5532990647473747,0,0.4963328266908152,0.391971214090252,0.7200346078298655,0,0.9822430826946199,0.6295847121792102,0.5069074464702235,0,0.6916980199561074,0.4831692743143444,0.4294344348373261,11.68498168498169,792.1611721611722,810.2930402930403,1023.040293040293,952.5274725274726,-0.593689,0.016235,0.790527,2.265472,-2.145844,-0.254211,1,4,1,1,1,85.000000
2023-08-29 17:21:43.814,,,,,,,,,,,,,,,,,,,,,,,,,,,,,,,,,,,,,,/muse/elements/blink
2023-08-29 17:21:44.097,,,,,,,,,,,,,,,,,,,,,,,,,,,,,,,,,,,,,,/muse/elements/blink
2023-08-29 17:21:44.503,0,0.3680302349379572,0.7882172090515699,0.4261163277786352,0,-0.07216988986344712,0.2811197002781451,0.5378424541062468,0,0.3494915573335182,0.6032811361441129,0.7200346078298655,0,1.000879154117103,0.5490143581933468,0.5550071207022488,0,0.7234792329882519,0.6001330175824395,0.4728388002978673,1642.344322344322,788.9377289377289,791.3553113553114,1008.131868131868,1040.769230769231,-0.620422,0.037598,0.774902,0.986938,-3.783264,0.029907,1,4,1,1,1,85.000000
2023-08-29 17:21:44.708,,,,,,,,,,,,,,,,,,,,,,,,,,,,,,,,,,,,,,/muse/elements/blink
2023-08-29 17:21:44.948,,,,,,,,,,,,,,,,,,,,,,,,,,,,,,,,,,,,,,/muse/elements/blink
2023-08-29 17:21:45.124,,,,,,,,,,,,,,,,,,,,,,,,,,,,,,,,,,,,,,/muse/elements/blink
2023-08-29 17:21:45.503,0,-0.05661196876557172,0.6046522555792265,0.2145306046025053,0,0.01165518652265066,0.1560289518919573,0.4595244349830273,0,0.2735030675392813,0.5569058096245825,0.5937848263504603,0,1.215107400328948,0.4423208934151333,0.5945421382300835,0,0.8328893529760614,0.5540024036008612,0.4771748367823767,143.0402930402931,798.6080586080586,778.0586080586081,983.956043956044,892.0879120879121,-0.597900,0.047668,0.797424,3.192596,-6.056213,-0.336456,1,4,1,1,1,85.000000
2023-08-29 17:21:45.559,,,,,,,,,,,,,,,,,,,,,,,,,,,,,,,,,,,,,,/muse/elements/blink
2023-08-29 17:21:46.019,,,,,,,,,,,,,,,,,,,,,,,,,,,,,,,,,,,,,,/muse/elements/blink
2023-08-29 17:21:46.516,0,0.02697202320617548,0.6555111858607574,0.2145306046025053,0,0.01236953668295651,0.157276532574096,0.4595244349830273,0,0.1459276505630228,0.4824751634250901,0.5937848263504603,0,1.001852077788066,0.4903771403007003,0.5945421382300835,0,0.8449558558925845,0.2916550936967452,0.4771748367823767,164.7985347985348,806.6666666666667,812.7106227106227,979.5238095238095,849.3772893772895,-0.595520,0.050476,0.787964,2.302856,-3.753357,-1.069183,1,4,1,1,2,85.000000
2023-08-29 17:21:47.372,,,,,,,,,,,,,,,,,,,,,,,,,,,,,,,,,,,,,,/muse/elements/blink
2023-08-29 17:21:47.482,,,,,,,,,,,,,,,,,,,,,,,,,,,,,,,,,,,,,,/muse/elements/jaw_clench
2023-08-29 17:21:47.503,0,0.03917277190003197,0.636326119295213,0.2145698928324448,0,0.1066062296119869,0.1790037576118161,0.08729818647069849,0,0.5137514535473018,0.3981297533434763,0.4935202448981629,0,0.9384797864169777,0.5875857469407597,0.6439581574461862,0,0.7968194055206144,0.1717783929570376,0.5462283413442083,127.7289377289377,796.5934065934066,801.025641025641,986.7765567765568,1001.684981684982,-0.596619,0.044922,0.798767,2.572021,-4.022522,0.269165,1,4,1,1,1,85.000000
2023-08-29 17:21:48.446,,,,,,,,,,,,,,,,,,,,,,,,,,,,,,,,,,,,,,/muse/elements/blink
2023-08-29 17:21:48.503,0,0.4005770875955235,0.7306428700833509,0.2441774390666377,0,0.04807232163136579,0.2592205118718047,0.2439698501159177,0,0.6105951329227565,0.4916239187747506,0.5578644009580876,0,1.025353868535724,0.6371938574842256,0.5969410379192065,0,0.7498945099440648,0.2580690913834311,0.3430230511393496,69.70695970695971,803.8461538461539,799.8168498168499,1007.326007326007,1025.457875457875,-0.590271,0.045288,0.796631,2.175751,-2.729034,0.650482,1,4,1,1,1,85.000000
2023-08-29 17:21:49.297,,,,,,,,,,,,,,,,,,,,,,,,,,,,,,,,,,,,,,/muse/elements/blink
2023-08-29 17:21:49.503,0,0.4334591207646133,0.7379646405037241,0.2447369955254952,0,0.04844670406370771,0.5649425722271358,0.3665278301695074,0,0.5799197330907521,0.5773269208229627,0.781939915458979,0,0.9378963184972042,0.6114923237969863,0.6128164656411167,0,0.6094829960404338,0.3024884055616521,0.4726133686838112,1544.835164835165,812.3076923076924,803.4432234432235,875.1648351648352,753.4798534798535,-0.587341,0.050232,0.798645,1.801910,-2.863617,0.538330,1,4,1,1,1,85.000000
2023-08-29 17:21:49.908,,,,,,,,,,,,,,,,,,,,,,,,,,,,,,,,,,,,,,/muse/elements/blink
2023-08-29 17:21:50.433,,,,,,,,,,,,,,,,,,,,,,,,,,,,,,,,,,,,,,/muse/elements/blink
2023-08-29 17:21:50.507,0,0.01373148045647858,0.5566112494231574,0.7210309363029097,0,0.1058260306389177,0.148524765305577,0.4477236542057767,0,0.5622990922556638,0.3597566259765412,0.8226875970265459,0,0.9255490148665343,0.5795966139110529,0.6197378545065788,0,0.586757439953692,0.2989151116673328,0.5037840065365227,35.05494505494506,796.996336996337,774.8351648351648,922.3076923076924,1166.080586080586,-0.606140,0.046326,0.782227,1.570129,-3.843079,-1.226196,1,4,1,1,1,85.000000
2023-08-29 17:21:51.514,0,0.2879631801329632,0.7239329501742214,0.8115260839002387,0,0.07304829597044193,-0.3118326333278788,0.380954912163683,0,0.5637446268068814,0.4112054207325775,0.8333563877322371,0,1.078778513848127,0.6249402010244599,0.658926839869113,0,0.6279412712767602,0.421103270418575,0.3428736799302496,1229.74358974359,799.8168498168499,793.3699633699634,706.3369963369963,644.6886446886447,-0.580017,0.055969,0.797180,1.241150,-0.740204,-0.620575,1,4,1,1,1,85.000000
2023-08-29 17:21:51.852,,,,,,,,,,,,,,,,,,,,,,,,,,,,,,,,,,,,,,/muse/elements/blink
2023-08-29 17:21:52.117,,,,,,,,,,,,,,,,,,,,,,,,,,,,,,,,,,,,,,/muse/elements/blink
2023-08-29 17:21:52.358,,,,,,,,,,,,,,,,,,,,,,,,,,,,,,,,,,,,,,/muse/elements/blink
2023-08-29 17:21:52.503,0,0.4987585346116987,0.2085673427970192,0.443605837340542,0,0.1637754563854275,0.199538446509857,0.4475746628881229,0,0.5666120142915475,0.610008659567703,0.8835711185579639,0,1.02529545735373,0.6285819197038789,0.6071835399107588,0,0.7029406003133183,0.4101558077106984,0.3207063725188425,148.2783882783883,808.6813186813187,804.2490842490843,968.6446886446887,878.7912087912089,-0.556885,0.062927,0.812683,1.248627,-6.392670,-0.912170,1,4,1,1,1,85.000000
2023-08-29 17:21:53.503,0,0.3683943743449725,0.5900977796649299,0.6750208402870577,0,0.3175149144987017,0.2204637510313702,0.8681271851229617,0,0.7358691773080467,0.5410878607343086,0.6721343938532437,0,1.016153492921502,0.5304382410808628,0.6277159430580929,0,0.8324154460865476,0.309320570371131,0.596440351144005,1390.10989010989,832.0512820512821,793.7728937728938,819.96336996337,717.2161172161173,-0.566345,0.076111,0.815735,1.398163,-5.069275,-0.852356,1,4,1,1,1,85.000000
2023-08-29 17:21:53.645,,,,,,,,,,,,,,,,,,,,,,,,,,,,,,,,,,,,,,/muse/elements/blink
2023-08-29 17:21:54.083,,,,,,,,,,,,,,,,,,,,,,,,,,,,,,,,,,,,,,/muse/elements/blink
2023-08-29 17:21:54.512,0,0.328386589585107,0.5687482358250882,0.8193593905546508,0,-0.006025337871369555,-0.1571647011393533,0.8467500635877728,0,0.4213539003015047,0.3305018120786777,0.7168540775765082,0,0.9474156263645561,0.5914578268635416,0.6603888608615699,0,0.8010982868826723,0.1551778528081404,0.5534210793024853,612.4542124542124,796.1904761904763,793.3699633699634,633.8095238095239,710.7692307692308,-0.559570,0.074097,0.814514,1.958923,-4.942169,-1.211243,1,4,1,1,1,85.000000
2023-08-29 17:21:55.396,,,,,,,,,,,,,,,,,,,,,,,,,,,,,,,,,,,,,,/muse/elements/blink
2023-08-29 17:21:55.503,0,0.2640650254007146,0.5320160165556029,0.7596359147824192,0,-0.02051645615004657,0.01153739168364065,0.6285236595168702,0,0.4087079518641452,0.20946719478765,0.6882479388259772,0,0.932709642036069,0.646027644139038,0.6732439373171285,0,0.7948398117395725,0.3986634386994651,0.6378775537299083,1050.03663003663,793.7728937728938,794.5787545787546,664.4322344322344,537.9120879120879,-0.553528,0.072632,0.813293,1.988831,-2.743988,0.478516,1,4,1,1,1,85.000000
2023-08-29 17:21:55.917,,,,,,,,,,,,,,,,,,,,,,,,,,,,,,,,,,,,,,/muse/elements/blink
2023-08-29 17:21:56.092,,,,,,,,,,,,,,,,,,,,,,,,,,,,,,,,,,,,,,/muse/elements/blink
2023-08-29 17:21:56.503,0,0.1155422642548653,0.5410759794801113,0.6120336643438384,0,0.0365873694170871,0.2184082854856536,0.6454193413137717,0,0.2451217657460003,0.3016289612322179,0.3594232319287655,0,1.104967259935551,0.5794878324294508,0.6774417807013472,0,0.8600215566891745,0.4037826081527709,0.7267384307923618,1331.282051282051,812.7106227106227,802.2344322344322,725.6776556776557,641.0622710622711,-0.558777,0.072449,0.809387,2.474823,-2.983246,-0.224304,1,4,1,1,1,85.000000
2023-08-29 17:21:56.617,,,,,,,,,,,,,,,,,,,,,,,,,,,,,,,,,,,,,,/muse/elements/blink
2023-08-29 17:21:56.903,,,,,,,,,,,,,,,,,,,,,,,,,,,,,,,,,,,,,,/muse/elements/blink
2023-08-29 17:21:57.122,,,,,,,,,,,,,,,,,,,,,,,,,,,,,,,,,,,,,,/muse/elements/blink
2023-08-29 17:21:57.504,0,-0.012114423759786,0.6667908925229319,0.7896666333693254,0,-0.1450378196428897,0.07322853881255655,0.60206415442662,0,0.1396079999656129,0.1867396771614725,0.611264234571353,0,1.238016244473266,0.6347055880757135,0.8091009632076164,0,0.8101446361264345,0.2629592480304299,0.436356925758924,124.9084249084249,803.4432234432235,762.3443223443223,583.8461538461538,539.1208791208792,-0.564758,0.075317,0.815063,1.906586,-3.760834,-0.560760,1,4,1,1,1,80.000000
2023-08-29 17:21:57.734,,,,,,,,,,,,,,,,,,,,,,,,,,,,,,,,,,,,,,/muse/elements/blink
2023-08-29 17:21:58.510,0,0.1879429839829246,0.5595972328891023,0.677892981790817,0,-0.5129456912657989,-0.05004139051000581,0.4015275905959574,0,-0.2822323985538325,0.2414829206678634,0.5946562665350934,0,1.220374639651071,0.6524678621644957,0.7061272103782318,0,0.7927462129001982,0.5396251931890236,0.5626116505757056,652.3443223443223,802.2344322344322,795.7875457875458,621.3186813186813,496.4102564102564,-0.557983,0.081116,0.816284,2.138367,-3.633728,-0.755157,1,4,1,1,1,80.000000
2023-08-29 17:21:58.958,,,,,,,,,,,,,,,,,,,,,,,,,,,,,,,,,,,,,,/muse/elements/blink
2023-08-29 17:21:59.503,0,0.02348339702601102,0.5515075441591315,0.3645866163699566,0,-0.5774094537370948,-0.09758701212314813,0.1008849982001739,0,-0.2491007019887711,0.4046797603893778,0.4754277359987494,0,1.051636478972374,0.6731282531289792,0.7896211066911947,0,0.9945088279597802,0.5552325724437004,0.4959880580790813,1179.377289377289,797.8021978021978,813.5164835164835,709.9633699633699,876.7765567765568,-0.589355,0.080444,0.790283,1.547699,-5.114136,-0.478516,1,4,1,1,1,80.000000
2023-08-29 17:22:00.503,0,0.2106796962588695,0.6593619881462848,0.3941886344693827,0,-0.007520755388642086,-0.1514107057195761,0.2797044936681349,0,0.2659230296322204,0.3756646300358011,0.4214634993843301,0,1.097781628621583,0.6626835440911275,0.7813597023832883,0,0.8501504908253608,0.4605058841382585,0.3125719339806762,66.08058608058609,786.1172161172161,788.5347985347986,601.5750915750916,484.7252747252747,-0.574402,0.081299,0.806274,1.398163,-4.471130,-0.859833,1,4,1,1,1,80.000000
2023-08-29 17:22:00.645,,,,,,,,,,,,,,,,,,,,,,,,,,,,,,,,,,,,,,/muse/elements/blink
2023-08-29 17:22:01.166,,,,,,,,,,,,,,,,,,,,,,,,,,,,,,,,,,,,,,/muse/elements/blink
2023-08-29 17:22:01.510,0,0.4171376905072282,0.732674865818291,0.1920463959320121,0,-0.02793919215153425,-0.1442128147949499,0.1791610332285844,0,0.3727230699100163,0.3001514707233721,0.3980048476259377,0,1.179853187044843,0.5741271313691202,0.7197440045123312,0,0.8046682978048575,0.3632952496240342,0.5074598892348067,596.3369963369963,805.0549450549451,791.3553113553114,633.8095238095239,493.5897435897436,-0.548828,0.078674,0.817139,1.846771,-3.940277,0.074768,1,4,1,1,1,80.000000
2023-08-29 17:22:02.503,0,0.1193958118788579,0.104315398962673,0.1187755032832986,0,-0.02818258829214031,-0.06477506874860001,0.244371956604357,0,0.2342913411446773,0.3397903636571455,0.6407720566811508,0,0.9935006753226852,0.6410723038063901,0.6137242122063677,0,0.5494315352979715,0.3819390699051985,0.3630410661112212,1192.673992673993,819.96336996337,795.3846153846154,707.5457875457876,655.5677655677656,-0.533936,0.081482,0.827698,1.263580,-3.715973,0.082245,1,4,1,1,1,80.000000
2023-08-29 17:22:02.790,,,,,,,,,,,,,,,,,,,,,,,,,,,,,,,,,,,,,,/muse/elements/blink
2023-08-29 17:22:03.503,0,0.12226672032368,0.2947202792671086,0.1440462611100934,0,-0.04666842106383613,-0.0577480572927638,0.1388100267443565,0,0.4783038102572591,0.3586159952648875,0.6776149885147604,0,0.9946917700481674,0.6852738327868777,0.7845495729095571,0,0.6914783727253851,0.3496389259218969,0.3802486977313725,1380.03663003663,801.4285714285714,798.2051282051282,806.2637362637363,686.996336996337,-0.537903,0.093872,0.824280,1.682281,-4.104767,0.299072,1,4,1,1,1,80.000000
2023-08-29 17:22:04.504,0,0.3167365351847028,0.741939097283685,0.2780670802161828,0,0.05061868305634002,-0.2395235898774299,0.1201042133572778,0,0.5254152074938863,0.3576310078290313,0.4507089557256564,0,0.9869291467173558,0.7056843233803283,0.7354043060619714,0,0.8745563279724029,0.219346364242077,0.3084355217299746,674.5054945054945,779.6703296703297,784.5054945054945,635.0183150183151,426.3003663003663,-0.533508,0.094543,0.831726,2.056122,-3.110352,-0.284119,1,4,1,1,1,80.000000
2023-08-29 17:22:04.625,,,,,,,,,,,,,,,,,,,,,,,,,,,,,,,,,,,,,,/muse/elements/blink
2023-08-29 17:22:04.911,,,,,,,,,,,,,,,,,,,,,,,,,,,,,,,,,,,,,,/muse/elements/blink
2023-08-29 17:22:05.502,0,0.6643250255958405,0.7323514513593053,0.3950472350904351,0,0.3753463899872179,-0.1373313717499688,0.1585079620119851,0,0.4840519184155108,0.0933626823618092,0.2916496589773363,0,0.9460571125103004,0.645849481174783,0.383021578564992,0,0.7967825227096048,0.3369851930347358,0.2354641868482689,1219.67032967033,821.1721611721612,790.1465201465202,706.3369963369963,627.3626373626374,-0.554565,0.082153,0.811829,1.749573,-3.229980,-0.336456,1,4,1,1,1,80.000000
2023-08-29 17:22:06.503,0,0.3304100546463161,0.123898010890086,0.2191825916339193,0,0.02564735692006337,-0.09460206961161979,0.2972331074399405,0,0.3413876927136122,0.2696626085134369,0.6144548391369941,0,1.142204070232001,0.6988929952219823,0.7799583618897123,0,0.6779633973889471,0.5011620157536911,0.4597170229064712,1385.677655677656,793.3699633699634,808.6813186813187,808.2783882783883,649.5238095238095,-0.555908,0.078613,0.810547,1.869202,-3.147736,0.224304,1,4,1,1,1,80.000000
2023-08-29 17:22:06.963,,,,,,,,,,,,,,,,,,,,,,,,,,,,,,,,,,,,,,/muse/elements/blink
2023-08-29 17:22:07.489,,,,,,,,,,,,,,,,,,,,,,,,,,,,,,,,,,,,,,/muse/elements/blink
2023-08-29 17:22:07.503,0,-0.05468849673454817,0.4065679690221957,0.1733516931638737,0,-0.3272527376122069,-0.09612198397241181,0.1202593666295742,0,0.4627632132239369,0.4018190339840543,0.5697203850759799,0,1.263265258387842,0.8055860361179603,0.6829042735841957,0,0.6939852816459434,0.4674095457470255,0.4563051430819342,706.7399267399268,796.996336996337,795.3846153846154,626.5567765567765,470.2197802197803,-0.554199,0.085999,0.821655,1.973877,-3.454285,-0.134583,1,4,1,1,1,70.000000
2023-08-29 17:22:07.666,,,,,,,,,,,,,,,,,,,,,,,,,,,,,,,,,,,,,,/muse/elements/blink
2023-08-29 17:22:08.506,0,0.07895988660349029,0.5184328598468243,0.406142583363662,0,-0.06255769282894579,-0.1108066064351193,0.1625824315043871,0,0.5289162829736824,0.268587052768728,0.6815093402030897,0,1.199917079299252,0.7062582975677488,0.7893945900609428,0,0.7656501577345183,0.7018462661323901,0.3971743049765549,1249.487179487179,803.4432234432235,778.4615384615385,716.4102564102565,774.4322344322345,-0.560608,0.076172,0.814453,1.742096,-3.551483,-0.942078,1,4,1,1,1,70.000000
2023-08-29 17:22:09.323,,,,,,,,,,,,,,,,,,,,,,,,,,,,,,,,,,,,,,/muse/elements/blink
2023-08-29 17:22:09.509,0,-0.05914776918126912,-0.07983849279560774,0.5350895861354743,0,-0.07506459964209276,-0.1351345034304391,0.2985780424959932,0,0.3552572436966649,0.3069076313878969,0.7458473078114904,0,1.000708345327129,0.6477683020335531,0.73303466807894,0,0.8343360899367429,0.6790760916756194,0.3886131679399751,165.6043956043956,812.7106227106227,820.3663003663004,608.021978021978,500.8424908424909,-0.592163,0.075195,0.780945,0.732727,2.654266,-4.000092,1,4,1,1,1,70.000000
2023-08-29 17:22:09.585,,,,,,,,,,,,,,,,,,,,,,,,,,,,,,,,,,,,,,/muse/elements/jaw_clench
2023-08-29 17:22:10.024,,,,,,,,,,,,,,,,,,,,,,,,,,,,,,,,,,,,,,/muse/elements/blink
2023-08-29 17:22:10.503,0,0.3690095884162314,0.6841418515631231,0.3758083408589009,0,-0.3171349051679503,-0.26310317594025,0.1415165553894563,0,0.2392644508712011,0.453059833984283,0.407771316308944,0,1.010114968369149,0.6646981307309762,0.6737515540758229,0,0.6903575850430014,0.4536342321260142,0.4040573135139481,918.6813186813187,771.2087912087912,821.5750915750916,687.3992673992674,581.025641025641,-0.638367,0.044556,0.789124,1.831818,4.149628,-0.433655,1,4,1,1,1,70.000000
2023-08-29 17:22:10.703,,,,,,,,,,,,,,,,,,,,,,,,,,,,,,,,,,,,,,/muse/elements/blink
2023-08-29 17:22:10.703,,,,,,,,,,,,,,,,,,,,,,,,,,,,,,,,,,,,,,/muse/elements/jaw_clench
2023-08-29 17:22:11.503,0,0.6070113516524378,0.7753530810572566,0.3767084177432476,0,-0.05016093995797689,0.09034908227428032,0.1114183948057558,0,0.6394569821246883,0.4997502197227167,0.1332595206425732,0,1.009982606033818,0.6136163493445962,0.6376019569228347,0,0.5683105897067581,0.5440629916460488,0.4638083736746494,1361.501831501831,805.4578754578755,785.3113553113553,727.6923076923077,692.6373626373627,-0.611633,0.054626,0.777161,1.906586,-3.020630,-0.007477,1,4,1,1,1,70.000000
2023-08-29 17:22:11.533,,,,,,,,,,,,,,,,,,,,,,,,,,,,,,,,,,,,,,/muse/elements/blink
2023-08-29 17:22:11.929,,,,,,,,,,,,,,,,,,,,,,,,,,,,,,,,,,,,,,/muse/elements/blink
2023-08-29 17:22:12.510,0,0.4248198275670916,0.5241324838257867,0.575498511757739,0,-0.08652057350771972,-0.03199521589565827,0.4892567387253093,0,0.6544642935750722,0.6354396504221027,0.6517466714447697,0,1.081538176236565,0.6640373565192217,0.838014071464004,0,0.6965817367903266,0.4072581203789558,0.6194379960109746,475.4578754578754,796.5934065934066,795.7875457875458,624.5421245421246,488.7545787545787,-0.593872,0.057007,0.789368,1.263580,-4.680481,-0.904694,1,4,1,1,1,70.000000
2023-08-29 17:22:13.503,0,0.2836781158117165,0.6199473559892038,0.4926554781153298,0,-0.1646858375353177,-0.07361472662262289,0.1969283706974578,0,0.3096728671761141,0.482984937357447,0.6011410421720358,0,0.8986042370163324,0.700882505501079,0.6857238494637788,0,0.5665926987627743,0.2746944323262762,0.5601604173587508,1204.358974358974,810.6959706959707,807.0695970695971,691.025641025641,581.025641025641,-0.587463,0.072754,0.790283,1.271057,-4.224396,-0.231781,1,4,1,1,1,70.000000
2023-08-29 17:22:13.593,,,,,,,,,,,,,,,,,,,,,,,,,,,,,,,,,,,,,,/muse/elements/blink
2023-08-29 17:22:13.858,,,,,,,,,,,,,,,,,,,,,,,,,,,,,,,,,,,,,,/muse/elements/blink
2023-08-29 17:22:14.378,,,,,,,,,,,,,,,,,,,,,,,,,,,,,,,,,,,,,,/muse/elements/blink
2023-08-29 17:22:14.503,0,0.5254164320529273,0.7715018798884076,0.6092332955985331,0,0.004930994043288248,0.1527505025936499,0.384080329014573,0,0.05896208474169075,0.3506632124396644,0.4849693421008592,0,0.9574127250178714,0.8642120905294544,0.5890225568407177,0,0.5579971433327893,0.1571641609227257,0.3686669934828999,1388.901098901099,806.2637362637363,794.981684981685,832.0512820512821,731.7216117216118,-0.599854,0.062561,0.781860,1.779480,-3.962708,-0.964508,1,4,1,1,1,70.000000
2023-08-29 17:22:15.503,0,0.4780062198654825,0.3056746563938416,0.8440864561568988,0,0.04351555362585625,0.1643087571466442,0.6452950243223307,0,0.475376162773729,0.461850985321573,0.6108801598757427,0,1.038665071225012,0.7592827692498834,0.6374678191228286,0,0.7451534339877157,0.237734304939037,0.4808899822086343,64.87179487179488,805.8608058608058,788.9377289377289,929.1575091575091,871.5384615384615,-0.589478,0.061279,0.798035,2.280426,-3.244934,-0.583191,1,4,1,1,1,70.000000
2023-08-29 17:22:16.505,0,0.3097703677751372,0.338579757735173,0.4558323465772242,0,0.06280470873271336,0.363088134168129,0.1530649923491295,0,0.4641434685972417,0.5635998991673714,0.2590805585612571,0,1.01843766618041,0.4948694055214484,0.6686064697455756,0,0.7685087342153494,0.390044012962161,0.4182815967096631,1382.454212454212,812.7106227106227,801.025641025641,790.5494505494506,604.3956043956044,-0.592590,0.061768,0.796875,1.749573,-2.758942,-0.216827,1,4,1,1,1,70.000000
2023-08-29 17:22:17.343,,,,,,,,,,,,,,,,,,,,,,,,,,,,,,,,,,,,,,/muse/elements/blink
2023-08-29 17:22:17.343,,,,,,,,,,,,,,,,,,,,,,,,,,,,,,,,,,,,,,/muse/elements/jaw_clench
2023-08-29 17:22:17.502,0,0.441683166727829,0.4624069750042585,0.6306475198665281,0,0.08125115370867644,0.2672142649318161,0.3491610134524942,0,0.3563514589253861,0.2632804632351392,0.158555806290104,0,1.031726502167688,0.5943369192168493,0.7359623727663781,0,0.7014673059560862,0.2948332216264548,0.3811043449616474,0.8058608058608059,802.2344322344322,793.3699633699634,933.5897435897436,1008.937728937729,-0.593628,0.065063,0.795715,2.325287,-3.110352,0.418701,1,4,1,1,1,85.000000
2023-08-29 17:22:18.129,,,,,,,,,,,,,,,,,,,,,,,,,,,,,,,,,,,,,,/muse/elements/blink
2023-08-29 17:22:18.509,0,0.7345309947766353,0.3344934704222673,0.6306475198665281,0,0.3810448783152382,0.05222624727293178,0.3491610134524942,0,0.4841459087757781,0.2408010325311448,0.158555806290104,0,1.037109733608684,0.6206506242229364,0.7359623727663781,0,0.7940931736653197,0.3789007223804591,0.3811043449616474,1371.172161172161,792.1611721611722,774.4322344322345,788.5347985347986,669.2673992673992,-0.681152,0.074158,0.719116,2.497253,-1.443024,-1.375732,1,4,1,1,1,85.000000
2023-08-29 17:22:19.502,0,0.4366019026150139,0.6334676762160035,0.6306475198665281,0,0.2542311475054586,0.1486891138507571,0.3491610134524942,0,0.5286714922627629,0.1959993911571557,0.158555806290104,0,1.206650832491555,0.5304728622563906,0.7359623727663781,0,0.8616624912459427,0.5327486605072725,0.3811043449616474,1594.798534798535,817.948717948718,808.6813186813187,890.4761904761905,819.5604395604396,-0.659058,0.085815,0.750671,1.712189,-2.415009,4.613190,1,4,1,1,2,85.000000
2023-08-29 17:22:20.503,0,0.1283810653781346,0.6674495705506558,0.08389393458651104,0,0.1167192058425665,0.1971329427816932,0.147941126236108,0,0.4115394587397027,0.2646686543313886,0.3125418437319908,0,1.192426613865485,0.4267816100250655,0.6214810195044687,0,0.820863820608615,0.4497555380760086,0.4017089068176931,163.1868131868132,803.040293040293,778.4615384615385,979.1208791208792,979.92673992674,-0.699585,0.077271,0.715820,4.216919,3.858032,-0.508423,1,4,1,1,1,85.000000
2023-08-29 17:22:20.983,,,,,,,,,,,,,,,,,,,,,,,,,,,,,,,,,,,,,,/muse/elements/blink
2023-08-29 17:22:21.502,0,0.24494851494462,0.5515291502826274,0.0925932412505619,0,0.03729424659456836,0.2602560261365759,0.09580371925903668,0,0.3579307896168011,0.1926367215996096,0.2600028123205047,0,1.075895102363532,0.40081718984061,0.6491844035315723,0,0.6981825136755737,0.3918497431275244,0.3560475008035807,12.49084249084249,800.2197802197802,782.4908424908425,993.2234432234433,929.5604395604396,-0.646179,0.078491,0.756470,1.629944,-4.613190,0.500946,1,4,1,1,1,85.000000
2023-08-29 17:22:22.503,0,0.1092259048168992,0.1556817384562668,0.6624453974475895,0,-0.3020644920184961,-0.4674325565212534,0.3887529595647696,0,0.3706814251976296,-0.01433517752419552,0.5365278144003179,0,1.162158962621551,0.7016510543781515,0.7601168967397467,0,0.8824112001130175,0.4344993347265858,0.2976669654426734,166.8131868131868,813.919413919414,798.2051282051282,946.0805860805862,873.956043956044,-0.619568,0.087463,0.772827,1.988831,-4.486084,-0.740204,1,4,1,1,1,85.000000
2023-08-29 17:22:23.337,,,,,,,,,,,,,,,,,,,,,,,,,,,,,,,,,,,,,,/muse/elements/blink
2023-08-29 17:22:23.502,0,0.2653659538458887,0.4650795291930482,0.5819262658552612,0,-0.07916526353915089,-0.4646349135308793,0.2045809167083698,0,0.4618563095691761,0.2001654587945216,0.5417083142110133,0,1.006137821336543,0.7277572096148885,0.7420468716431813,0,0.7323772774701445,0.4475767847995037,0.3664983709164167,18.53479853479854,792.5641025641025,804.6520146520147,994.0293040293041,1023.040293040293,-0.604858,0.076355,0.785461,2.355194,-2.998199,-0.343933,1,4,1,1,1,85.000000
2023-08-29 17:22:24.321,,,,,,,,,,,,,,,,,,,,,,,,,,,,,,,,,,,,,,/muse/elements/blink
2023-08-29 17:22:24.507,0,0.8113949310350757,0.6972661737662078,0.3847696299047591,0,0.4643637925153812,-0.1761081296376067,0.1551861936330286,0,0.4457250470795625,0.5534537017525735,0.4046299809428722,0,0.8773282338044347,0.5514535048387388,0.8222711041067737,0,0.6479133094563786,0.2772187753261139,0.4529193725769304,168.8278388278388,795.3846153846154,799.4139194139194,965.4212454212454,686.996336996337,-0.605103,0.075745,0.779419,2.100983,-3.259888,-0.194397,1,4,1,1,1,85.000000
2023-08-29 17:22:24.735,,,,,,,,,,,,,,,,,,,,,,,,,,,,,,,,,,,,,,/muse/elements/blink
2023-08-29 17:22:24.931,,,,,,,,,,,,,,,,,,,,,,,,,,,,,,,,,,,,,,/muse/elements/blink
2023-08-29 17:22:25.506,0,0.2199659591900917,0.2972594656539587,0.744198362829959,0,-0.04314013839856808,0.3029870338417988,0.6051315960848723,0,0.359052737459212,0.6156398899808603,0.5797307129088721,0,1.123444776350547,0.7093809098366293,0.8794834188320065,0,0.5458097844790942,0.3252354527870949,0.3321825355233733,50.36630036630036,802.6373626373627,802.2344322344322,1000.879120879121,950.9157509157509,-0.608093,0.067200,0.786011,1.749573,-4.000092,-1.046753,1,4,1,1,1,85.000000
2023-08-29 17:22:26.239,,,,,,,,,,,,,,,,,,,,,,,,,,,,,,,,,,,,,,/muse/elements/blink
2023-08-29 17:22:26.511,0,0.01644258458029841,0.3927806650962521,0.5060324156161385,0,-0.02658106525287236,0.2300584493362161,0.3638483259534533,0,0.4073138962526629,0.4397196822473461,0.691442343370373,0,1.092094892800133,0.6916271560684008,0.7523974334798117,0,0.7222655785849184,0.2681841643650967,0.4835803398413149,120.0732600732601,768.7912087912088,799.0109890109891,959.7802197802198,916.2637362637363,-0.606873,0.077026,0.781799,2.011261,-3.177643,-0.971985,1,4,1,1,1,85.000000
2023-08-29 17:22:27.502,0,0.1587454967626975,0.6751120738264031,0.5525266699655064,0,-0.1113228486554348,0.09403473980297079,0.349508710507987,0,0.3003476611052378,0.3141258168032769,0.6546556687068802,0,1.115211540796298,0.6376828232810389,0.5552142422494833,0,0.8110389019018857,0.3088558234722857,0.3462318677778248,965.0183150183151,788.5347985347986,782.4908424908425,923.1135531135532,978.7179487179487,-0.597046,0.069946,0.788269,2.026215,-3.626251,-0.710297,1,4,1,1,1,85.000000
2023-08-29 17:22:28.292,,,,,,,,,,,,,,,,,,,,,,,,,,,,,,,,,,,,,,/muse/elements/blink
2023-08-29 17:22:28.503,0,0.1010442592955287,0.4056710474790328,0.6780898600546327,0,-0.1602186873068391,-0.1946385570718931,0.1920148854545146,0,0.3159450112202069,0.3863164247697398,0.5634577348517927,0,1.22778330607102,0.6183636458805218,0.5955592484306726,0,0.822499380912989,0.4522240370647267,0.4227463107000008,1649.59706959707,783.6996336996338,788.5347985347986,987.985347985348,934.7985347985348,-0.603088,0.070862,0.788574,2.332764,-2.586975,0.112152,1,4,1,1,1,75.000000
2023-08-29 17:22:28.684,,,,,,,,,,,,,,,,,,,,,,,,,,,,,,,,,,,,,,/muse/elements/blink
2023-08-29 17:22:28.902,,,,,,,,,,,,,,,,,,,,,,,,,,,,,,,,,,,,,,/muse/elements/blink
2023-08-29 17:22:29.422,,,,,,,,,,,,,,,,,,,,,,,,,,,,,,,,,,,,,,/muse/elements/blink
2023-08-29 17:22:29.502,0,-0.5677398799117147,0.4830004823942226,0.7945696476997103,0,-0.03995773884591794,0.07857159541995642,0.1514307870973952,0,0.2573938038677192,0.5104702474984202,0.5102334169117827,0,1.265628940186724,0.5262812127920865,0.6981966180699237,0,0.8480349379229377,0.4568604536029867,0.4454422700040068,1344.578754578755,814.7252747252747,816.7399267399268,967.8388278388279,1014.981684981685,-0.594666,0.071960,0.783325,1.854248,-3.611298,0.732727,1,4,1,1,1,75.000000
2023-08-29 17:22:30.295,,,,,,,,,,,,,,,,,,,,,,,,,,,,,,,,,,,,,,/muse/elements/blink
2023-08-29 17:22:30.502,0,0.4236959295634358,0.7087377672786856,0.3414659431763146,0,0.02576403069423941,-0.1739956981865173,0.6743175234801896,0,0.4575318530965298,0.4390005798642257,0.4793636476962609,0,1.093339839411376,0.5923218338604531,0.8858660342887724,0,0.6338909834448093,0.3183041738747124,0.4864781055514914,536.7032967032967,779.2673992673992,786.1172161172161,864.6886446886447,834.8717948717949,-0.583862,0.078308,0.794678,1.727142,-5.502930,1.076660,1,4,1,1,1,75.000000
2023-08-29 17:22:31.060,,,,,,,,,,,,,,,,,,,,,,,,,,,,,,,,,,,,,,/muse/elements/blink
2023-08-29 17:22:31.510,0,0.3979495905440105,0.5137643619998922,0.3854007071847738,0,-0.1568611182537277,-0.09655385065216279,0.3091147619861532,0,0.5493732805230483,0.3735771802173602,0.4763212091742435,0,1.06189347520421,0.6809207280656343,0.6904610612515297,0,0.6950957270337886,0.3264402850239102,0.4533607687255196,1533.553113553114,799.4139194139194,776.8498168498169,980.3296703296703,961.7948717948718,-0.574280,0.083862,0.800415,1.420593,-2.153320,-0.934601,1,4,1,1,1,75.000000
2023-08-29 17:22:32.502,0,0.09503139568382024,0.2294480541343902,0.4368131567953908,0,0.02670349564418505,0.09749936610521841,0.005080838393404901,0,0.5635209704399361,0.3090463837618003,0.4128167516583904,0,1.105842117544568,0.7427991879019878,0.5653363956982752,0,0.7276357557463599,0.3159242156194593,0.4688316863405388,947.6923076923077,776.0439560439561,803.040293040293,931.1721611721612,1138.681318681319,-0.594299,0.073547,0.802734,1.659851,-2.018738,-0.418701,1,4,1,1,1,75.000000
2023-08-29 17:22:32.570,,,,,,,,,,,,,,,,,,,,,,,,,,,,,,,,,,,,,,/muse/elements/blink
2023-08-29 17:22:33.376,,,,,,,,,,,,,,,,,,,,,,,,,,,,,,,,,,,,,,/muse/elements/blink
2023-08-29 17:22:33.376,,,,,,,,,,,,,,,,,,,,,,,,,,,,,,,,,,,,,,/muse/elements/jaw_clench
2023-08-29 17:22:33.502,0,0.3527432327608827,0.5402189709095395,0.4266896677785412,0,-0.1788271949601487,-0.1504409124257068,0.2891419191364354,0,0.3717087186409104,0.2766920869395716,0.4704459814801732,0,1.078042868495789,0.5608186083131923,0.642300030049372,0,0.6936632366691583,0.3941160601900736,0.4272280579695498,4.432234432234432,794.981684981685,790.1465201465202,888.8644688644689,910.6227106227107,-0.562134,0.061096,0.804810,3.970184,-14.594727,9.054413,1,4,1,1,1,75.000000
2023-08-29 17:22:33.791,,,,,,,,,,,,,,,,,,,,,,,,,,,,,,,,,,,,,,/muse/elements/blink
2023-08-29 17:22:34.317,,,,,,,,,,,,,,,,,,,,,,,,,,,,,,,,,,,,,,/muse/elements/blink
2023-08-29 17:22:34.502,0,0.2378542080466983,0.6976798134291412,0.523190038668105,0,-0.09028892576782704,0.1004876298738714,0.3983687667391003,0,0.6299630360352074,0.5710284468854145,0.4403416261353745,0,1.070070906850383,0.7455196401282139,0.5398180057971962,0,0.697730123066151,0.390352801812402,0.4862524171080489,711.1721611721612,786.1172161172161,801.4285714285714,839.7069597069598,831.2454212454213,-0.604492,0.055481,0.785889,1.757050,-4.605713,-0.874786,1,4,1,1,1,75.000000
2023-08-29 17:22:35.503,0,0.3232881973203083,0.2794141181992545,0.4200359268810641,0,-0.1076310454550645,0.2573780580957101,0.5057822142225297,0,0.6017656192986238,0.6415700738125574,0.3846426777014814,0,1.099575027268772,0.7588862339105186,0.6339349716965742,0,0.8081211628896136,0.3132994227460718,0.3620866225441642,39.89010989010989,794.981684981685,798.2051282051282,755.8974358974359,846.959706959707,-0.587891,0.064514,0.791565,1.540222,-4.403839,0.059814,1,4,1,1,1,75.000000
2023-08-29 17:22:36.508,0,0.6562187969636555,0.6672986492766376,0.3291583864570187,0,0.1940254738851326,0.1732278662775045,0.3431470782457011,0,0.659660437942674,0.6205191994586921,0.4632446821018141,0,1.009123611987946,0.591792197086089,0.4928747499272613,0,0.689443765092589,0.4456500795360471,0.4027110053817193,991.6117216117217,776.0439560439561,790.1465201465202,899.3406593406594,888.0586080586081,-0.579346,0.050415,0.803894,1.203766,-4.897308,-2.901001,1,4,1,1,1,75.000000
2023-08-29 17:22:37.351,,,,,,,,,,,,,,,,,,,,,,,,,,,,,,,,,,,,,,/muse/elements/jaw_clench
2023-08-29 17:22:37.502,0,0.162193212204233,0.6373040847756264,0.5646778567592667,0,-0.2965143854595989,0.201579204789862,0.1565952421528394,0,0.1693727866612618,0.515757476180505,0.5774757874790828,0,1.054742816627379,0.5481768110510045,0.5108540042664115,0,0.7416062194306494,0.4501474782053324,0.275127452536894,0,777.2527472527473,784.1025641025641,624.1391941391942,643.4798534798535,-0.577148,0.053528,0.801086,2.063599,-3.259888,-1.607513,1,2,1,1,1,75.000000
2023-08-29 17:22:38.502,0,0.1445603829206316,-0.02271795349299939,0.4011036406271603,0,-0.2266603120280652,-0.1842614621333857,0.2682290460805344,0,0.3118972022963369,0.3192156201515369,0.6123631016278108,0,0.9551400415677005,0.5688248842926306,0.7072128090292956,0,0.7540917866841238,0.3690299913283551,0.3464024021831114,21.75824175824176,792.5641025641025,810.6959706959707,765.9706959706959,815.934065934066,-0.584900,0.053345,0.805420,1.300964,-5.129089,0.142059,1,2,1,1,1,85.000000
2023-08-29 17:22:39.502,0,0.2480357996578821,0.3618728438484828,0.5136762200011528,0,-0.003826248529923492,-0.07020387981143597,0.2210269179928292,0,0.5044917630440091,0.3856975970506769,0.4478438045748872,0,1.247570545486326,0.6936851080803695,0.7642037342563281,0,0.7944138809183117,0.4365828624903623,0.4383792636748534,993.2234432234433,767.985347985348,790.5494505494506,944.4688644688645,835.6776556776557,-0.577515,0.060364,0.805969,1.622467,-3.117828,-1.674805,1,2,1,1,1,85.000000
2023-08-29 17:22:39.637,,,,,,,,,,,,,,,,,,,,,,,,,,,,,,,,,,,,,,/muse/elements/blink
2023-08-29 17:22:39.637,,,,,,,,,,,,,,,,,,,,,,,,,,,,,,,,,,,,,,/muse/elements/jaw_clench
2023-08-29 17:22:40.163,,,,,,,,,,,,,,,,,,,,,,,,,,,,,,,,,,,,,,/muse/elements/jaw_clench
2023-08-29 17:22:40.501,0,0.4397256571271475,0.6075864827503216,0.6670679027195092,0,0.1225916765165716,0.1416812195961225,-0.04249057820389662,0,0.5059140181195932,0.2866929200271487,0.1122751925461837,0,1.292368495315604,0.7961302153756017,0.8420596214849868,0,0.7831126447027273,0.3907896161457511,0.3827340830658889,674.5054945054945,781.2820512820513,780.0732600732601,845.7509157509157,835.6776556776557,-0.582886,0.059570,0.801392,2.489777,-2.549591,-0.411224,1,2,1,1,1,85.000000
2023-08-29 17:22:41.186,,,,,,,,,,,,,,,,,,,,,,,,,,,,,,,,,,,,,,/muse/elements/jaw_clench
2023-08-29 17:22:41.502,0,-0.3442311472315521,0.2226923481782161,0.2811080684513187,0,-0.03181877657389821,0.0002397281831282339,0.4836803828348317,0,0.3190835561670812,0.3154939387435446,0.2329297556678897,0,1.079053361700948,0.7465082455515215,0.5781943124982299,0,0.9208438695650878,0.4105282629445113,0.3289328749389571,96.7032967032967,783.6996336996338,801.4285714285714,784.5054945054945,922.3076923076924,-0.580078,0.050598,0.805176,1.652374,-4.867401,-0.299072,1,4,1,1,1,85.000000
2023-08-29 17:22:42.502,,,,,,,,,,,,,,,,,,,,,,,,,,,,,,,,,,,,,,/muse/elements/jaw_clench
2023-08-29 17:22:42.515,0,0.09185182137392407,0.4085082433774435,0.4346780748185764,0,-0.2403483616498661,-0.04325186236179077,0.2516053896995281,0,0.4002319171243471,0.3706644431311835,0.5965574135604912,0,1.146824563056158,0.6517624657406874,0.6858740895910689,0,0.7932618056025037,0.3893897447503619,0.4564471311318712,1004.102564102564,801.8315018315019,804.2490842490843,924.3223443223443,1019.413919413919,-0.579224,0.067810,0.801697,2.938385,-2.639313,0.216827,1,4,1,1,1,85.000000
2023-08-29 17:22:43.502,0,0.3787255868478835,0.7170520374602474,0.7000162684391161,0,0.2765366383149587,-0.061216625354931,0.4271519017338457,0,0.5264968849299242,0.2862121997782597,0.7381179636491342,0,1.088948567859809,0.6646781535422054,0.8124593014095257,0,0.7064784206516052,0.3484504256667491,0.4945557921760316,809.4871794871796,783.6996336996338,794.5787545787546,872.3443223443223,872.7472527472528,-0.574890,0.064270,0.805115,1.413116,-3.790741,-1.016846,1,4,1,1,1,85.000000
2023-08-29 17:22:43.617,,,,,,,,,,,,,,,,,,,,,,,,,,,,,,,,,,,,,,/muse/elements/blink
2023-08-29 17:22:44.337,,,,,,,,,,,,,,,,,,,,,,,,,,,,,,,,,,,,,,/muse/elements/blink
2023-08-29 17:22:44.502,0,0.4344687782884168,0.5733978043401772,0.8687900473538854,0,0.2852996963227479,0.287784822017342,0.4318055724441854,0,0.5702527901687857,0.6275207810978272,0.6381347763687728,0,0.9860896696463419,0.7404004076353238,0.7351359870733206,0,0.7967988450326813,0.4903907025872045,0.5122332912820213,368.6813186813187,780.0732600732601,797.8021978021978,808.2783882783883,782.893772893773,-0.601074,0.077087,0.795776,3.200073,2.190704,6.235657,1,2,1,1,1,85.000000
2023-08-29 17:22:44.755,,,,,,,,,,,,,,,,,,,,,,,,,,,,,,,,,,,,,,/muse/elements/blink
2023-08-29 17:22:45.502,0,0.3603042259030582,0.2488304043360337,0.6481215247910141,0,-0.1459402171126562,-0.08180968492544927,0.4048082096252759,0,0.4365077740305378,0.5031545949206349,0.576750733083651,0,0.9663904547324229,0.6365810913820276,0.8364588902203102,0,0.7612213296787924,0.5866505200327728,0.5435573399672623,1019.010989010989,780.8791208791209,809.4871794871796,1004.505494505495,901.7582417582418,-0.623962,0.103943,0.766541,1.951447,-3.065491,0.097198,1,4,1,1,1,85.000000
2023-08-29 17:22:45.657,,,,,,,,,,,,,,,,,,,,,,,,,,,,,,,,,,,,,,/muse/elements/blink
2023-08-29 17:22:46.335,,,,,,,,,,,,,,,,,,,,,,,,,,,,,,,,,,,,,,/muse/elements/blink
2023-08-29 17:22:46.502,0,0.5146982164481607,0.5134816101410976,0.5515898843980226,0,-0.09841188947366362,-0.08122472273011232,0.3236538735425975,0,0.2649954638160198,0.4376885055276759,0.2880354547970057,0,1.123944933467277,0.6895687221686083,0.8407147577111523,0,0.7629876204693038,0.598829174806362,0.5313758170538808,950.5128205128206,761.941391941392,789.7435897435897,890.8791208791209,871.941391941392,-0.613037,0.101318,0.772400,1.465454,-3.850555,-1.196289,1,2,1,1,1,85.000000
2023-08-29 17:22:46.858,,,,,,,,,,,,,,,,,,,,,,,,,,,,,,,,,,,,,,/muse/elements/jaw_clench
2023-08-29 17:22:47.502,0,0.1332022908700423,0.5823585635711082,0.5247953857070802,0,-0.1921236607212073,-0.02202228509557475,0.3789886122341699,0,0.4387928674965864,0.3534228080522795,0.711950992934633,0,1.190934329771006,0.6336850337996316,0.7155238234363754,0,0.8344073258366737,0.4372523786698665,0.3880415014277546,551.6117216117216,761.941391941392,796.5934065934066,831.2454212454213,871.1355311355312,-0.605347,0.093201,0.779724,1.009369,-4.538422,-0.358887,1,2,1,1,1,85.000000
2023-08-29 17:22:47.992,,,,,,,,,,,,,,,,,,,,,,,,,,,,,,,,,,,,,,/muse/elements/blink
2023-08-29 17:22:48.409,,,,,,,,,,,,,,,,,,,,,,,,,,,,,,,,,,,,,,/muse/elements/jaw_clench
2023-08-29 17:22:48.508,0,0.1019802769494211,0.2136121151744403,0.3128431207800227,0,-0.3339048506521825,-0.2206416089928475,0.1446482223757843,0,0.4380858062030605,0.3351088503222746,0.548324647991503,0,1.089445188009615,0.6633265889639788,0.8396487801523208,0,0.9055839952926618,0.3527347576820563,0.4715075081012527,1046.007326007326,815.934065934066,799.0109890109891,954.5421245421246,918.6813186813187,-0.597595,0.096741,0.789246,2.078552,-0.523376,-0.859833,1,4,1,1,1,80.000000
2023-08-29 17:22:48.586,,,,,,,,,,,,,,,,,,,,,,,,,,,,,,,,,,,,,,/muse/elements/jaw_clench
2023-08-29 17:22:49.110,,,,,,,,,,,,,,,,,,,,,,,,,,,,,,,,,,,,,,/muse/elements/blink
2023-08-29 17:22:49.374,,,,,,,,,,,,,,,,,,,,,,,,,,,,,,,,,,,,,,/muse/elements/blink
2023-08-29 17:22:49.502,0,0.296133047148499,0.3209386697149142,0.5143247188759296,0,-0.2121080093715801,-0.2340905273374215,0.4095620764380666,0,0.4235852660498372,0.373259549458101,0.5071458157510462,0,1.105420282871759,0.6223906217224328,0.7914611158506488,0,0.7737087771761406,0.4164503851631354,0.4717335434073326,972.6739926739928,785.7142857142858,785.3113553113553,884.0293040293041,867.5091575091575,-0.610107,0.086487,0.780518,2.863617,-0.755157,0.575714,1,2,1,1,1,80.000000
2023-08-29 17:22:50.502,0,0.3979251785331006,0.5751070884037691,0.7701113896964003,0,-0.05203022948771966,0.0698927793791545,0.4570187138172,0,0.3552317903458537,0.4067515823735002,0.506841999910708,0,1.042314816502248,0.6246658207440992,0.6679141233213178,0,0.753792453479484,0.4711133174081738,0.3262800912205374,553.6263736263736,793.7728937728938,786.1172161172161,835.2747252747253,794.5787545787546,-0.620728,0.083923,0.756653,1.936493,7.947845,0.732727,1,4,1,1,1,80.000000
2023-08-29 17:22:50.745,,,,,,,,,,,,,,,,,,,,,,,,,,,,,,,,,,,,,,/muse/elements/blink
2023-08-29 17:22:51.118,,,,,,,,,,,,,,,,,,,,,,,,,,,,,,,,,,,,,,/muse/elements/jaw_clench
2023-08-29 17:22:51.502,0,0.388890831265814,0.6658951483348662,1.040349983773423,0,0.3702210270202036,0.07807823461915564,0.4669440451641912,0,0.8118311117445527,0.2122895661825361,0.770663943439606,0,1.293334459796709,0.7690933009039252,0.7540548055406432,0,1.086125380156528,0.4255024611042554,0.3250350060849312,1028.278388278388,782.4908424908425,810.6959706959707,959.7802197802198,929.1575091575091,-0.651978,0.076904,0.750244,3.222504,4.560852,0.097198,1,4,1,1,1,80.000000
2023-08-29 17:22:51.968,,,,,,,,,,,,,,,,,,,,,,,,,,,,,,,,,,,,,,/muse/elements/blink
2023-08-29 17:22:52.502,0,0.447360785330864,0.7871952775946122,1.143525106362607,0,0.3627482301530869,0.2042611699527367,0.5938930855462623,0,0.8118311117445527,0.6453934715195657,0.7703946318569845,0,1.255822364714934,0.79932186619546,0.8340165862326968,0,0.9326637577808913,0.3713622093334686,0.3912864381141755,941.2454212454213,792.5641025641025,803.4432234432235,873.1501831501831,862.6739926739926,-0.650940,0.082825,0.751587,2.370148,-3.476715,-0.665436,1,4,1,1,1,80.000000
2023-08-29 17:22:52.758,,,,,,,,,,,,,,,,,,,,,,,,,,,,,,,,,,,,,,/muse/elements/jaw_clench
2023-08-29 17:22:53.509,0,0.2558264215425034,0.6503497527651325,0.2616065176330462,0,0.1328711483494844,-0.009271343845475446,0.4544553128570002,0,0.611014175339785,0.6078050298849421,0.6980676021792618,0,1.163493249489886,0.658002975101713,0.6326511995160465,0,0.7251072375410348,0.2694634062777309,0.3810078412276293,1306.300366300366,788.1318681318681,765.1648351648352,984.3589743589744,1054.065934065934,-0.631958,0.078613,0.756958,1.712189,-4.381409,-0.680389,1,4,1,1,1,80.000000
2023-08-29 17:22:53.806,,,,,,,,,,,,,,,,,,,,,,,,,,,,,,,,,,,,,,/muse/elements/blink
2023-08-29 17:22:54.069,,,,,,,,,,,,,,,,,,,,,,,,,,,,,,,,,,,,,,/muse/elements/blink
2023-08-29 17:22:54.069,,,,,,,,,,,,,,,,,,,,,,,,,,,,,,,,,,,,,,/muse/elements/jaw_clench
2023-08-29 17:22:54.267,,,,,,,,,,,,,,,,,,,,,,,,,,,,,,,,,,,,,,/muse/elements/jaw_clench
2023-08-29 17:22:54.502,0,0.1937990479679552,0.5008385934252351,0.1634186416991932,0,0.04816165401320267,-0.3176947380490188,0.2713729232077882,0,0.6430382356453872,0.366492928567751,0.6404093244256952,0,1.15260964654885,0.6981350077883577,0.6989415112333112,0,0.7714808583752074,0.3397907626793886,0.4089941970127145,0,796.996336996337,792.5641025641025,736.1538461538462,645.4945054945055,-0.649048,0.086731,0.748108,2.557068,0.822449,-2.018738,1,4,1,1,1,80.000000
2023-08-29 17:22:54.593,,,,,,,,,,,,,,,,,,,,,,,,,,,,,,,,,,,,,,/muse/elements/blink
2023-08-29 17:22:54.790,,,,,,,,,,,,,,,,,,,,,,,,,,,,,,,,,,,,,,/muse/elements/jaw_clench
2023-08-29 17:22:54.880,,,,,,,,,,,,,,,,,,,,,,,,,,,,,,,,,,,,,,/muse/elements/blink
2023-08-29 17:22:55.294,,,,,,,,,,,,,,,,,,,,,,,,,,,,,,,,,,,,,,/muse/elements/jaw_clench
2023-08-29 17:22:55.490,,,,,,,,,,,,,,,,,,,,,,,,,,,,,,,,,,,,,,/muse/elements/jaw_clench
2023-08-29 17:22:55.503,0,0.2058304907756391,0.6709168337477953,0.3491851396767979,0,-0.1713625016516464,0.3973458822940536,0.3371219308945109,0,0.5459433206302818,0.4599337582136326,0.4376137940446653,0,1.187439323913298,0.7697921348154851,0.9383957495934512,0,0.8080740226551858,0.4743621212935786,0.4147356268906403,856.6300366300367,803.040293040293,800.6227106227107,869.92673992674,876.3736263736264,-0.650452,0.083618,0.751465,1.622467,-4.112244,-0.814972,1,4,1,1,1,80.000000
2023-08-29 17:22:55.620,,,,,,,,,,,,,,,,,,,,,,,,,,,,,,,,,,,,,,/muse/elements/blink
2023-08-29 17:22:56.230,,,,,,,,,,,,,,,,,,,,,,,,,,,,,,,,,,,,,,/muse/elements/blink
2023-08-29 17:22:56.230,,,,,,,,,,,,,,,,,,,,,,,,,,,,,,,,,,,,,,/muse/elements/jaw_clench
2023-08-29 17:22:56.502,0,0.379180460978341,0.6533309226513453,0.3491851396767979,0,-0.1071878049500591,0.2019104776307224,0.3371219308945109,0,0.1810864980067895,0.4913762488033582,0.4376137940446653,0,1.202497842115515,0.6971217881455147,0.9383957495934512,0,0.9030541210621392,0.5522271690805458,0.4147356268906403,398.4981684981685,788.9377289377289,797.8021978021978,823.992673992674,739.7802197802198,-0.658081,0.062012,0.756775,-1.158905,4.957123,-12.598419,1,4,1,1,1,80.000000
2023-08-29 17:22:56.601,,,,,,,,,,,,,,,,,,,,,,,,,,,,,,,,,,,,,,/muse/elements/blink
2023-08-29 17:22:56.601,,,,,,,,,,,,,,,,,,,,,,,,,,,,,,,,,,,,,,/muse/elements/jaw_clench
2023-08-29 17:22:56.840,,,,,,,,,,,,,,,,,,,,,,,,,,,,,,,,,,,,,,/muse/elements/blink
2023-08-29 17:22:56.840,,,,,,,,,,,,,,,,,,,,,,,,,,,,,,,,,,,,,,/muse/elements/jaw_clench
2023-08-29 17:22:57.038,,,,,,,,,,,,,,,,,,,,,,,,,,,,,,,,,,,,,,/muse/elements/jaw_clench
2023-08-29 17:22:57.236,,,,,,,,,,,,,,,,,,,,,,,,,,,,,,,,,,,,,,/muse/elements/jaw_clench
2023-08-29 17:22:57.512,0,0.3524616872047062,0.5836967754723325,0.3491851396767979,0,-0.1779114398325725,-0.02434602981486174,0.3371219308945109,0,0.4502270699566038,0.4113851011373326,0.4376137940446653,0,1.025112808225403,0.5900066158845403,0.9383957495934512,0,0.8262920082502231,0.2657142940169083,0.4147356268906403,1054.871794871795,786.9230769230769,783.6996336996338,935.6043956043957,934.7985347985348,-0.697083,-0.048279,0.735229,8.112335,-5.450592,5.465546,1,4,1,1,2,80.000000
2023-08-29 17:22:58.151,,,,,,,,,,,,,,,,,,,,,,,,,,,,,,,,,,,,,,/muse/elements/jaw_clench
2023-08-29 17:22:58.501,0,0.4749714159577026,0.2084570708002046,0.8011611767432575,0,0.1363345946357156,0.07826387813565663,0.3853936448727148,0,0.6526393179691088,0.5216386173596214,0.319774722582443,0,0.9912565368850161,0.6382603216562168,0.7092325300164622,0,0.7175017640295447,0.2897262903392411,0.2551937468331052,993.2234432234433,785.3113553113553,806.6666666666667,903.7728937728938,906.5934065934066,-0.667419,0.061646,0.758423,0.284119,-2.026215,-0.186920,1,2,1,1,1,80.000000
2023-08-29 17:22:58.522,,,,,,,,,,,,,,,,,,,,,,,,,,,,,,,,,,,,,,/muse/elements/jaw_clench
2023-08-29 17:22:58.762,,,,,,,,,,,,,,,,,,,,,,,,,,,,,,,,,,,,,,/muse/elements/jaw_clench
2023-08-29 17:22:59.046,,,,,,,,,,,,,,,,,,,,,,,,,,,,,,,,,,,,,,/muse/elements/jaw_clench
2023-08-29 17:22:59.502,0,0.666897299548322,0.5507699104525448,0.7908024094351586,0,0.1959507147287424,0.1633896678580576,0.3469844714718817,0,0.8709928949737457,0.3971433236340622,0.5156225417777534,0,1.027118741418953,0.5150345587772489,0.636788811119225,0,0.8067928804020487,0.4739110596678993,0.2008497215001343,744.2124542124542,796.996336996337,801.025641025641,841.3186813186813,839.7069597069598,-0.652039,0.065002,0.748535,-0.732727,-4.104767,5.024414,1,2,1,1,1,85.000000
2023-08-29 17:22:59.678,,,,,,,,,,,,,,,,,,,,,,,,,,,,,,,,,,,,,,/muse/elements/jaw_clench
2023-08-29 17:23:00.268,,,,,,,,,,,,,,,,,,,,,,,,,,,,,,,,,,,,,,/muse/elements/blink
2023-08-29 17:23:00.502,0,0.5657213917509841,0.4891726133622314,0.7717920736686333,0,0.03174420346771022,-0.1012537370323116,0.3165182230174692,0,0.8875281173681523,0.2894928972179382,0.5070797643293481,0,0.8797984143634966,0.5144757974002423,0.6525210210856832,0,0.9734246028073332,0.5022919494343496,0.1916363933762922,376.3369963369963,777.2527472527473,791.3553113553114,803.040293040293,794.1758241758242,-0.624939,0.050171,0.770508,2.347717,-2.975769,2.818756,1,4,1,1,1,85.000000
2023-08-29 17:23:01.501,0,0.2366416605174575,0.09804343068100675,0.4186270548331261,0,-0.03202763450164125,-0.1068291411608128,0.1025677368511648,0,0.6434050273233,0.2910734879958913,0.6298471867398655,0,0.8987112682633011,0.6894774333760272,0.6094522683362704,0,0.8318890908974845,0.2993558184596993,0.4064592801621362,1070.586080586081,797.3992673992674,799.4139194139194,961.3919413919414,995.2380952380953,-0.616272,0.066895,0.773560,1.801910,-3.618774,-1.323395,1,4,1,1,1,85.000000
2023-08-29 17:23:02.429,,,,,,,,,,,,,,,,,,,,,,,,,,,,,,,,,,,,,,/muse/elements/jaw_clench
2023-08-29 17:23:02.502,0,0.02530689418325591,0.01744339759124868,0.1396170547595795,0,-0.4686720438554435,-0.0326759744060705,-0.08261135668522707,0,0.4303244666581817,0.09929783816461553,0.5123678363024058,0,0.7819441726999614,0.7833692258895504,0.6032319169281942,0,0.7081483621576565,0.24571638794517,0.4793994819209921,1009.74358974359,773.6263736263736,800.2197802197802,920.6959706959707,931.1721611721612,-0.614136,0.065247,0.778992,1.540222,-3.342133,0.388794,1,2,1,1,1,85.000000
2023-08-29 17:23:02.712,,,,,,,,,,,,,,,,,,,,,,,,,,,,,,,,,,,,,,/muse/elements/jaw_clench
2023-08-29 17:23:03.507,0,-0.09617141966313517,0.6818652364668905,0.005184867637255352,0,-0.3101710133836856,-0.02299553551162698,0.296866062779055,0,0.5207239917607414,0.3019380786131268,0.5369255401401782,0,1.040383746543954,0.7175649090689897,0.701996866409757,0,0.7997599073053111,0.3507504500067149,0.5219880055571122,145.0549450549451,793.7728937728938,780.4761904761905,994.8351648351648,978.3150183150184,-0.623535,0.062439,0.769226,1.899109,-3.170166,-1.196289,1,4,1,1,1,85.000000
2023-08-29 17:23:03.847,,,,,,,,,,,,,,,,,,,,,,,,,,,,,,,,,,,,,,/muse/elements/blink
2023-08-29 17:23:04.510,0,0.4259579543395888,0.7496611788036267,0.4412034853901728,0,-0.05036745788907899,0.08282140607886984,0.5086346003161329,0,0.5601496382038442,0.5413077157632539,0.5925458313449611,0,1.14539220542654,0.8312786476647811,0.738564837479486,0,0.7732642716268177,0.4629368480387777,0.4565857936936111,38.27838827838828,808.6813186813187,774.4322344322345,992.8205128205128,1022.234432234432,-0.609863,0.056702,0.778198,1.629944,-3.192596,-0.964508,1,2,1,1,1,85.000000
2023-08-29 17:23:05.454,,,,,,,,,,,,,,,,,,,,,,,,,,,,,,,,,,,,,,/muse/elements/blink
2023-08-29 17:23:05.507,0,0.4655070461422364,0.150097860616045,0.5682424440291612,0,0.0007662692868035429,0.1797882383871743,0.08208271783240596,0,0.3722968287048228,0.6585280209632293,0.6781252468199593,0,1.163999719655133,0.782716256545265,0.6038327531779856,0,0.8802363032809026,0.4436375475972048,0.4640208270485254,1490.03663003663,779.6703296703297,821.978021978022,1000.879120879121,980.3296703296703,-0.613281,0.066040,0.780640,1.973877,-3.708496,1.614990,1,2,1,1,1,85.000000
2023-08-29 17:23:06.506,0,-0.1770849484625996,0.7446044390834771,0.5103292604846069,0,-0.4792965206872937,0.3753759869043151,0.1109760341226218,0,0.2062002101438477,0.7818156056046617,0.6604947272460535,0,1.056878055976531,0.7236558671390789,0.5522949399730656,0,0.8831806825802224,0.2940302022885417,0.5247805510019601,161.5750915750916,781.6849816849817,785.7142857142858,931.5750915750916,834.4688644688645,-0.639771,0.064941,0.754272,1.973877,-5.779572,-0.725250,1,2,1,1,1,85.000000
2023-08-29 17:23:06.670,,,,,,,,,,,,,,,,,,,,,,,,,,,,,,,,,,,,,,/muse/elements/jaw_clench
2023-08-29 17:23:06.865,,,,,,,,,,,,,,,,,,,,,,,,,,,,,,,,,,,,,,/muse/elements/jaw_clench
2023-08-29 17:23:07.060,,,,,,,,,,,,,,,,,,,,,,,,,,,,,,,,,,,,,,/muse/elements/jaw_clench
2023-08-29 17:23:07.507,0,-0.1770849484625996,0.7277780593150688,0.5103292604846069,0,-0.4792965206872937,0.07150270035407788,0.1109760341226218,0,0.2062002101438477,0.5794108418886361,0.6604947272460535,0,1.056878055976531,0.7639689387355757,0.5522949399730656,0,0.8831806825802224,0.3292942068385328,0.5247805510019601,182.1245421245421,801.4285714285714,782.893772893773,960.989010989011,992.4175824175825,-0.624084,0.063538,0.764099,2.175751,-3.536530,-0.037384,1,2,1,1,1,85.000000
2023-08-29 17:23:08.085,,,,,,,,,,,,,,,,,,,,,,,,,,,,,,,,,,,,,,/muse/elements/jaw_clench
2023-08-29 17:23:08.413,,,,,,,,,,,,,,,,,,,,,,,,,,,,,,,,,,,,,,/muse/elements/blink
2023-08-29 17:23:08.511,0,0.257903782709723,-0.05178850391148415,0.4334172730705528,0,-0.1749606770585836,0.05965034692780181,0.1375654294109718,0,0.1511037803815062,0.5717254048143366,0.1938214449710166,0,0.929393357819837,0.8210924885111919,0.6757689869730973,0,0.902755874981794,0.3717301711102113,0.3365786096714656,1541.611721611722,795.7875457875458,777.2527472527473,816.3369963369963,817.1428571428571,-0.624756,0.060303,0.767029,1.517792,-3.663635,-1.420593,1,2,1,1,1,85.000000
2023-08-29 17:23:09.132,,,,,,,,,,,,,,,,,,,,,,,,,,,,,,,,,,,,,,/muse/elements/jaw_clench
2023-08-29 17:23:09.502,0,0.1361504988004157,0.1206324283624018,0.3633346604030206,0,-0.1840283567231114,0.008190356897873107,0.01167096462913663,0,0.2101401377982208,0.4819582925338745,0.2296743803393663,0,0.9181224665691112,0.7806880139196631,0.5747871828344683,0,0.8685442220057982,0.3617259007722398,0.1847291560220123,1642.747252747253,808.2783882783883,795.7875457875458,989.5970695970697,986.3736263736264,-0.632568,0.061401,0.764221,1.413116,-3.185120,-0.762634,1,4,1,1,1,80.000000
2023-08-29 17:23:09.724,,,,,,,,,,,,,,,,,,,,,,,,,,,,,,,,,,,,,,/muse/elements/jaw_clench
2023-08-29 17:23:10.423,,,,,,,,,,,,,,,,,,,,,,,,,,,,,,,,,,,,,,/muse/elements/blink
2023-08-29 17:23:10.502,0,0.2857466707201882,0.3188828390973049,0.2873575071291327,0,0.02122443371656136,-0.0230709817650765,0.2009504247130707,0,0.5597109114785819,0.5339979748262355,0.6253689055670216,0,1.067315187584298,0.5447958985236148,0.7299496632308283,0,0.8261746667378453,0.3703953482143975,0.3292693223212398,161.978021978022,801.4285714285714,783.2967032967033,950.1098901098901,902.967032967033,-0.668884,0.042297,0.724670,4.957123,-1.173859,2.788849,1,4,1,1,1,80.000000
2023-08-29 17:23:10.945,,,,,,,,,,,,,,,,,,,,,,,,,,,,,,,,,,,,,,/muse/elements/jaw_clench
2023-08-29 17:23:11.055,,,,,,,,,,,,,,,,,,,,,,,,,,,,,,,,,,,,,,/muse/elements/blink
2023-08-29 17:23:11.502,0,0.2708398575636056,0.4934307291613243,0.0835848065042834,0,0.1806989217491733,0.03657279447959781,0.1779709489974389,0,0.5866725721662183,0.3590339340840766,0.6253689055670216,0,1.016472680869642,0.6784736107926858,0.8308063408959662,0,0.6554056010516404,0.4849569004057503,0.4809817217778943,190.989010989011,782.893772893773,782.893772893773,984.7619047619048,988.7912087912089,-0.656433,0.067322,0.744507,-3.573914,-6.684265,8.411407,1,4,1,1,1,80.000000
2023-08-29 17:23:11.751,,,,,,,,,,,,,,,,,,,,,,,,,,,,,,,,,,,,,,/muse/elements/blink
2023-08-29 17:23:12.502,0,-0.01105558351722466,0.4419749463864635,0.4970564668996509,0,-0.003776156702931324,-0.2397921734625449,0.2727941760893187,0,0.3832464620390023,0.2310876759710128,0.4931331897153398,0,1.049597000797974,0.6234870348143702,0.7738121162185982,0,0.6858508016678777,0.4323053288881221,0.4915653992663629,109.5970695970696,817.1428571428571,801.025641025641,989.1941391941392,1034.725274725275,-0.628418,0.050110,0.765991,3.132782,-4.987030,1.211243,1,2,1,1,1,80.000000
2023-08-29 17:23:12.668,,,,,,,,,,,,,,,,,,,,,,,,,,,,,,,,,,,,,,/muse/elements/blink
2023-08-29 17:23:12.668,,,,,,,,,,,,,,,,,,,,,,,,,,,,,,,,,,,,,,/muse/elements/jaw_clench
2023-08-29 17:23:12.865,,,,,,,,,,,,,,,,,,,,,,,,,,,,,,,,,,,,,,/muse/elements/blink
2023-08-29 17:23:13.150,,,,,,,,,,,,,,,,,,,,,,,,,,,,,,,,,,,,,,/muse/elements/jaw_clench
2023-08-29 17:23:13.501,0,0.2638069728960057,0.4613551633868078,0.42123299621935,0,-0.2733298301426948,-0.4556558457414661,0.401742449003706,0,0.4241563051738886,0.0069732798741427,0.5316378488541506,0,1.13751510123566,0.4950801006432667,0.68341059194743,0,0.8298214413059395,0.4610000873733837,0.4826706890435731,159.96336996337,794.1758241758242,777.6556776556777,904.5787545787546,883.6263736263736,-0.614990,0.054565,0.772217,1.973877,-4.201965,-1.241150,1,2,1,1,1,80.000000
2023-08-29 17:23:14.502,0,0.3403022339225844,0.6034232517226336,0.5185046428631568,0,-0.3905380036691706,-0.07545438985007558,0.465931291377795,0,0.2646449782261958,0.220978875836363,0.5066511189923023,0,1.230979571103893,0.6448989233535384,0.8324274141995404,0,0.9558483162051528,0.4271199424373395,0.418410696993095,180.1098901098901,809.0842490842491,789.7435897435897,953.3333333333334,948.4981684981685,-0.619446,0.058289,0.768127,2.557068,-3.110352,-1.988831,1,2,1,1,1,80.000000
2023-08-29 17:23:14.984,,,,,,,,,,,,,,,,,,,,,,,,,,,,,,,,,,,,,,/muse/elements/jaw_clench
2023-08-29 17:23:15.399,,,,,,,,,,,,,,,,,,,,,,,,,,,,,,,,,,,,,,/muse/elements/jaw_clench
2023-08-29 17:23:15.502,0,-0.2633500987408421,0.403181252133675,0.3410891662795721,0,-0.1821836535862005,0.3001291171686565,0.2711545834957966,0,0.3246061847721959,0.4999637635141777,0.6661403900826304,0,1.140525489467322,0.6918345717119505,0.6926511267584695,0,0.6958801460779751,0.3226843963398574,0.5086851033287604,1604.468864468864,799.8168498168499,806.2637362637363,828.8278388278388,692.6373626373627,-0.623230,0.048035,0.785583,1.973877,-4.785156,-1.151428,1,4,1,1,1,80.000000
2023-08-29 17:23:16.210,,,,,,,,,,,,,,,,,,,,,,,,,,,,,,,,,,,,,,/muse/elements/jaw_clench
2023-08-29 17:23:16.340,,,,,,,,,,,,,,,,,,,,,,,,,,,,,,,,,,,,,,/muse/elements/blink
2023-08-29 17:23:16.429,,,,,,,,,,,,,,,,,,,,,,,,,,,,,,,,,,,,,,/muse/elements/jaw_clench
2023-08-29 17:23:16.506,0,-0.0711925484721193,0.2723568041066479,0.2100959566740914,0,-0.2397356416991142,0.2086122595335255,-0.07099667784775786,0,0.5264084260128815,0.5109763052830227,0.6002188955878105,0,1.121103422193891,0.6729944894906509,0.5882899307858693,0,0.6602045336487015,0.2421582008346954,0.3530284062006542,135.3846153846154,773.6263736263736,806.2637362637363,882.014652014652,837.2893772893773,-0.604858,0.056824,0.785522,1.495361,-2.848663,-0.007477,1,2,1,1,1,80.000000
2023-08-29 17:23:17.513,0,0.1820836305463138,0.506650246580191,0.5301877735555808,0,-0.1283424560588476,0.04669045903815146,0.1966508709562256,0,0.5141490246344604,0.4242145553772451,0.693975526017106,0,1.036582141796198,0.5946201790493416,0.6603550815634721,0,0.8120588377024511,0.3378737551147853,0.3794620324735959,833.6630036630037,801.025641025641,799.8168498168499,708.3516483516484,613.6630036630037,-0.648071,0.016235,0.749878,4.411316,-2.474823,-7.379608,1,2,1,1,1,80.000000
2023-08-29 17:23:17.545,,,,,,,,,,,,,,,,,,,,,,,,,,,,,,,,,,,,,,/muse/elements/jaw_clench
2023-08-29 17:23:17.741,,,,,,,,,,,,,,,,,,,,,,,,,,,,,,,,,,,,,,/muse/elements/jaw_clench
2023-08-29 17:23:17.937,,,,,,,,,,,,,,,,,,,,,,,,,,,,,,,,,,,,,,/muse/elements/jaw_clench
2023-08-29 17:23:18.354,,,,,,,,,,,,,,,,,,,,,,,,,,,,,,,,,,,,,,/muse/elements/jaw_clench
2023-08-29 17:23:18.502,0,0.05638864115607285,0.5030742045664837,0.8575517242126419,0,-0.09333683648475327,-0.381173490753216,0.1761915591344982,0,0.3934063474739598,0.3088000148852274,0.4074778547894746,0,1.09778502443351,0.5506066726477207,0.7862127804910596,0,0.7851623530859617,0.3007855047796206,0.4897666308953734,190.5860805860806,811.0989010989011,789.3406593406594,956.959706959707,915.4578754578755,-0.640747,0.028564,0.772583,1.899109,-3.110352,-0.336456,1,2,1,1,1,80.000000
2023-08-29 17:23:19.164,,,,,,,,,,,,,,,,,,,,,,,,,,,,,,,,,,,,,,/muse/elements/jaw_clench
2023-08-29 17:23:19.502,0,-0.1912818425448425,0.1941155669958639,0.518429655519589,0,-0.373508382718219,-0.2023628163795091,0.06278220808322109,0,0.3513608912843522,0.1686152498383044,0.3855122501119764,0,1.0481875994087,0.5821804614112164,0.7036579672351521,0,0.8082689958845357,0.300319647019246,0.4160986410625557,10.47619047619048,815.934065934066,801.025641025641,841.3186813186813,973.0769230769231,-0.674316,-0.023804,0.718872,3.162689,-1.001892,-11.768494,1,4,1,1,1,80.000000
2023-08-29 17:23:19.863,,,,,,,,,,,,,,,,,,,,,,,,,,,,,,,,,,,,,,/muse/elements/blink
2023-08-29 17:23:20.103,,,,,,,,,,,,,,,,,,,,,,,,,,,,,,,,,,,,,,/muse/elements/jaw_clench
2023-08-29 17:23:20.473,,,,,,,,,,,,,,,,,,,,,,,,,,,,,,,,,,,,,,/muse/elements/jaw_clench
2023-08-29 17:23:20.501,0,-0.116607119852697,0.4246647668974108,0.4115747988328436,0,-0.146674564854093,-0.03994592881199176,0.1957438102572046,0,0.7366487475472623,0.3529975240569297,0.2687446604757681,0,1.157401697430459,0.5741287597829874,0.7543430741297146,0,0.7397186281166148,0.3829019950236171,0.3977828271980479,155.1282051282051,807.8754578754579,778.4615384615385,886.8498168498169,880,-0.662415,0.006836,0.740417,1.951447,-4.994507,0.089722,1,4,1,1,1,80.000000
2023-08-29 17:23:21.502,0,-0.2260812840686915,0.5438688476484771,0.3613447542910822,0,-0.1287920706334018,-0.3274519581500084,0.1334795376696057,0,0.6900480813012944,0.3617949140298298,0.5298136506144867,0,1.200638566674839,0.6929980196989722,0.7344769460070835,0,0.7417970580574446,0.4963059326704353,0.4020080445647702,169.6336996336996,815.5311355311355,781.2820512820513,956.1538461538462,983.5531135531136,-0.646790,0.003601,0.754272,2.295380,-3.932800,-1.428070,1,4,1,1,1,80.000000
2023-08-29 17:23:21.506,,,,,,,,,,,,,,,,,,,,,,,,,,,,,,,,,,,,,,/muse/elements/jaw_clench
2023-08-29 17:23:21.683,,,,,,,,,,,,,,,,,,,,,,,,,,,,,,,,,,,,,,/muse/elements/jaw_clench
2023-08-29 17:23:22.501,0,-0.2404935247923758,-0.0425380068829703,0.6808010885744304,0,-0.1422032567678179,-0.1018046393126228,0.5195563309098279,0,0.5582070761162604,0.3088632241866395,0.7218938066905373,0,1.080475741568804,0.6214057438221572,0.7959388722076521,0,0.7637377736247215,0.5269615436403673,0.5508055903331678,1521.062271062271,803.4432234432235,793.3699633699634,819.1575091575091,732.1245421245421,-0.643372,0.011230,0.757812,2.564545,-4.134674,-0.269165,1,2,1,1,1,80.000000
2023-08-29 17:23:22.517,,,,,,,,,,,,,,,,,,,,,,,,,,,,,,,,,,,,,,/muse/elements/blink
2023-08-29 17:23:23.418,,,,,,,,,,,,,,,,,,,,,,,,,,,,,,,,,,,,,,/muse/elements/jaw_clench
2023-08-29 17:23:23.502,0,-0.03522163165940803,0.1702195807204288,0.3763615293443188,0,-0.002158322024237695,-0.03386484286330612,0.5867315984814924,0,0.299826667931892,0.1079807349503843,0.5437283277625605,0,1.043299717577902,0.5625605767320823,0.6748395973359743,0,0.7251045215108096,0.4024239121885208,0.566232750770461,135.3846153846154,802.6373626373627,803.040293040293,855.8241758241759,801.8315018315019,-0.636841,0.016296,0.763611,1.742096,-3.013153,-0.299072,1,4,1,1,1,80.000000
2023-08-29 17:23:24.269,,,,,,,,,,,,,,,,,,,,,,,,,,,,,,,,,,,,,,/muse/elements/jaw_clench
2023-08-29 17:23:24.359,,,,,,,,,,,,,,,,,,,,,,,,,,,,,,,,,,,,,,/muse/elements/blink
2023-08-29 17:23:24.447,,,,,,,,,,,,,,,,,,,,,,,,,,,,,,,,,,,,,,/muse/elements/jaw_clench
2023-08-29 17:23:24.502,0,0.3005973654810677,0.3659362405222931,0.3521494032318182,0,0.08501610030938056,-0.1639009424143209,0.5311991507257269,0,0.4453857884747719,0.147434826981392,0.7619636406702882,0,0.9976489134812242,0.6762132963784662,0.6394556232063658,0,0.7178955932848543,0.2916120061697129,0.3982497087150903,912.6373626373627,823.992673992674,780.8791208791209,729.7069597069598,591.9047619047619,-0.627502,0.039124,0.758850,-0.381317,-5.031891,6.549683,1,4,1,1,1,80.000000
2023-08-29 17:23:24.644,,,,,,,,,,,,,,,,,,,,,,,,,,,,,,,,,,,,,,/muse/elements/jaw_clench
2023-08-29 17:23:25.256,,,,,,,,,,,,,,,,,,,,,,,,,,,,,,,,,,,,,,/muse/elements/jaw_clench
2023-08-29 17:23:25.501,0,0.4547648516491211,0.420642299428064,0.3480491824342403,0,0.2142008033967671,0.02517925173777996,0.4485268341678847,0,0.4746871992755184,0.1104897867512336,0.7285479416607912,0,1.158891327745913,0.8010694196130599,0.6843399713767589,0,0.6568930474280925,0.4408703186307478,0.4418490872372047,1490.842490842491,809.4871794871796,778.8644688644689,807.4725274725275,891.6849816849817,-0.623901,0.055420,0.778503,1.487885,-2.886047,0.403748,1,4,1,1,1,80.000000
2023-08-29 17:23:25.763,,,,,,,,,,,,,,,,,,,,,,,,,,,,,,,,,,,,,,/muse/elements/blink
2023-08-29 17:23:26.269,,,,,,,,,,,,,,,,,,,,,,,,,,,,,,,,,,,,,,/muse/elements/jaw_clench
2023-08-29 17:23:26.467,,,,,,,,,,,,,,,,,,,,,,,,,,,,,,,,,,,,,,/muse/elements/jaw_clench
2023-08-29 17:23:26.502,0,-0.001916383571399065,0.6407237415278437,0.9032825367980024,0,0.1111859819467628,-0.08230103641215229,0.7790423096811689,0,0.5255128225356328,0.4454495169337239,0.8504638081515423,0,1.188483803614954,0.8034128792812897,0.7348204922362475,0,0.762905355317246,0.5225893877917505,0.554754280649143,136.1904761904762,817.1428571428571,806.2637362637363,878.7912087912089,934.3956043956044,-0.605164,0.070068,0.780090,2.003784,-3.072968,0.373840,1,2,1,1,1,80.000000
2023-08-29 17:23:26.709,,,,,,,,,,,,,,,,,,,,,,,,,,,,,,,,,,,,,,/muse/elements/jaw_clench
2023-08-29 17:23:27.170,,,,,,,,,,,,,,,,,,,,,,,,,,,,,,,,,,,,,,/muse/elements/jaw_clench
2023-08-29 17:23:27.411,,,,,,,,,,,,,,,,,,,,,,,,,,,,,,,,,,,,,,/muse/elements/blink
2023-08-29 17:23:27.514,0,0.3433753800273125,0.7361135261650089,1.200394247097433,0,0.1526313517569652,0.03052375583936026,0.7825883022301865,0,0.3478840595011125,0.4241726632207888,0.8499308737033375,0,1.181344158300082,0.7550404109253103,0.8395566940583842,0,0.7573358862545042,0.4405561215956545,0.504985031614451,1045.604395604396,791.3553113553114,794.981684981685,760.3296703296703,649.1208791208792,-0.617554,0.072266,0.777344,1.712189,-3.215027,-0.934601,1,4,1,1,1,80.000000
2023-08-29 17:23:27.676,,,,,,,,,,,,,,,,,,,,,,,,,,,,,,,,,,,,,,/muse/elements/jaw_clench
2023-08-29 17:23:28.005,,,,,,,,,,,,,,,,,,,,,,,,,,,,,,,,,,,,,,/muse/elements/jaw_clench
2023-08-29 17:23:28.292,,,,,,,,,,,,,,,,,,,,,,,,,,,,,,,,,,,,,,/muse/elements/blink
2023-08-29 17:23:28.502,0,0.7722628232224746,0.4670434067193773,1.279691078336021,0,0.2557213993558429,0.1668499138135376,0.7122092944655205,0,0.345471907490382,0.3519578208450004,0.7744191954616251,0,1.040299819806616,0.8752698913828322,0.9118880351290569,0,0.7745678703871693,0.5952434702232501,0.3971314753583234,66.48351648351648,822.3809523809524,783.6996336996338,850.5860805860806,841.7216117216118,-0.639832,0.089417,0.760498,-1.532745,-4.882355,1.973877,1,4,1,1,1,80.000000
2023-08-29 17:23:28.509,,,,,,,,,,,,,,,,,,,,,,,,,,,,,,,,,,,,,,/muse/elements/blink
2023-08-29 17:23:29.230,,,,,,,,,,,,,,,,,,,,,,,,,,,,,,,,,,,,,,/muse/elements/jaw_clench
2023-08-29 17:23:29.502,0,0.3701575648860038,0.2020426124353892,0.3837291647689129,0,0.07063653962052996,0.03293409605059509,0.5280103631762428,0,0.4804312362418802,0.3256509365532277,0.6068992143352576,0,1.095508864122184,0.8548102367647128,0.841613147972103,0,0.7241586305006845,0.5563370995640456,0.3628784824322456,166.4102564102564,805.0549450549451,817.5457875457876,946.4835164835165,933.5897435897436,-0.644043,0.070312,0.754700,0.822449,-1.495361,-0.665436,1,2,1,1,1,80.000000
2023-08-29 17:23:29.604,,,,,,,,,,,,,,,,,,,,,,,,,,,,,,,,,,,,,,/muse/elements/jaw_clench
2023-08-29 17:23:29.844,,,,,,,,,,,,,,,,,,,,,,,,,,,,,,,,,,,,,,/muse/elements/blink
2023-08-29 17:23:29.844,,,,,,,,,,,,,,,,,,,,,,,,,,,,,,,,,,,,,,/muse/elements/jaw_clench
2023-08-29 17:23:30.502,0,0.1699342660775897,0.7636378347390571,0.5779378624450986,0,0.1704425916514123,0.01879800976109337,0.4239518418510339,0,0.487274528552992,-0.007136333566926261,0.7186930738489534,0,1.185348780716011,0.7925695896410421,0.8043021606468671,0,0.8286813384740442,0.443797538661685,0.358442528037522,76.95970695970696,776.8498168498169,774.0293040293041,862.2710622710623,801.025641025641,-0.629333,0.071289,0.763489,2.362671,-4.216919,-0.112152,1,4,1,1,1,75.000000
2023-08-29 17:23:30.748,,,,,,,,,,,,,,,,,,,,,,,,,,,,,,,,,,,,,,/muse/elements/jaw_clench
2023-08-29 17:23:30.967,,,,,,,,,,,,,,,,,,,,,,,,,,,,,,,,,,,,,,/muse/elements/jaw_clench
2023-08-29 17:23:31.504,0,0.4531137851988866,0.7865452054533956,0.4418257031326986,0,0.06043909631374713,0.05318363816636631,0.2821004474217058,0,0.3792129432806403,0.2290636321381548,0.6366862972382504,0,1.231475910082038,0.7919033459444483,0.7323650320005988,0,0.8395664934539739,0.48213708264347,0.3388492184510725,176.4835164835165,794.1758241758242,799.4139194139194,955.7509157509157,1078.241758241758,-0.623901,0.068298,0.770325,2.340240,-3.207550,-0.897217,1,4,1,1,1,75.000000
2023-08-29 17:23:32.256,,,,,,,,,,,,,,,,,,,,,,,,,,,,,,,,,,,,,,/muse/elements/blink
2023-08-29 17:23:32.256,,,,,,,,,,,,,,,,,,,,,,,,,,,,,,,,,,,,,,/muse/elements/jaw_clench
2023-08-29 17:23:32.501,0,0.1387658526793432,-0.1267911075995583,0.3137348991917254,0,-0.2092383070755795,-0.07125614331868262,0.1025663845084447,0,0.1824714573200091,0.325614084734085,0.6643260106990148,0,1.066538036035821,0.7147577648887612,0.6165843022674001,0,0.9414434382440805,0.5201904421262655,0.3791253400736829,25.78754578754579,811.0989010989011,799.0109890109891,985.1648351648352,938.4249084249085,-0.622498,0.068665,0.769104,1.607513,-2.886047,-0.014954,1,4,1,1,1,75.000000
2023-08-29 17:23:32.977,,,,,,,,,,,,,,,,,,,,,,,,,,,,,,,,,,,,,,/muse/elements/jaw_clench
2023-08-29 17:23:33.393,,,,,,,,,,,,,,,,,,,,,,,,,,,,,,,,,,,,,,/muse/elements/jaw_clench
2023-08-29 17:23:33.502,0,0.06696578018097077,0.2680172380030748,0.5001614676402111,0,0.01868396755045862,-0.2746995063926722,0.1340649156460371,0,0.2623074020958649,0.3612346058734826,0.7181252823709816,0,1.079483735255133,0.7765418461989916,0.7437515198100296,0,0.9196481216654564,0.4369179025958906,0.3076551029745427,1054.065934065934,775.2380952380953,789.7435897435897,936.007326007326,993.6263736263736,-0.626526,0.080872,0.764648,1.899109,-2.758942,0.164490,1,4,1,1,1,75.000000
2023-08-29 17:23:33.591,,,,,,,,,,,,,,,,,,,,,,,,,,,,,,,,,,,,,,/muse/elements/jaw_clench
2023-08-29 17:23:33.787,,,,,,,,,,,,,,,,,,,,,,,,,,,,,,,,,,,,,,/muse/elements/jaw_clench
2023-08-29 17:23:34.028,,,,,,,,,,,,,,,,,,,,,,,,,,,,,,,,,,,,,,/muse/elements/jaw_clench
2023-08-29 17:23:34.203,,,,,,,,,,,,,,,,,,,,,,,,,,,,,,,,,,,,,,/muse/elements/jaw_clench
2023-08-29 17:23:34.501,0,0.1163525546582074,0.2034632332064727,0.6854180720403558,0,0.01763650895720734,-0.2670505580703231,0.3884732499125467,0,0.5318573651783512,0.447171333237913,0.6459031164280776,0,0.9681871443210421,0.6591100637623453,0.7877736802007773,0,0.7957039854832179,0.5610702035166719,0.3539663981622564,1600.03663003663,784.5054945054945,790.1465201465202,999.2673992673992,1105.641025641026,-0.617981,0.080322,0.769958,2.400055,-3.364563,0.239258,1,2,1,1,1,75.000000
2023-08-29 17:23:34.701,,,,,,,,,,,,,,,,,,,,,,,,,,,,,,,,,,,,,,/muse/elements/jaw_clench
2023-08-29 17:23:34.986,,,,,,,,,,,,,,,,,,,,,,,,,,,,,,,,,,,,,,/muse/elements/jaw_clench
2023-08-29 17:23:35.501,0,0.09321288439643546,-0.1836289332999352,0.494080646862154,0,0.06737763565143598,-0.247578612169185,0.5952210753557017,0,0.5837898071585337,0.3730722025843801,0.683710733557378,0,0.9354881536878428,0.6280286367266679,0.6991088295038902,0,0.7954254500556526,0.5396602591715338,0.3499657699050657,1033.516483516484,784.9084249084249,803.040293040293,951.7216117216118,969.4505494505495,-0.611267,0.078125,0.775146,1.809387,-3.058014,-0.164490,1,2,1,1,1,75.000000
2023-08-29 17:23:36.121,,,,,,,,,,,,,,,,,,,,,,,,,,,,,,,,,,,,,,/muse/elements/jaw_clench
2023-08-29 17:23:36.501,0,0.05411201026441374,0.4305570314928599,0.7205816882282355,0,0.0136850130383924,0.02346320712074778,0.889925316089709,0,0.3910002739311111,0.545971400826198,0.7349951376910724,0,1.070802315416457,0.6476563437205901,0.7282615111544117,0,0.8963075517527633,0.4584723865200472,0.3601279678924945,830.4395604395604,786.5201465201466,805.0549450549451,893.6996336996338,970.2564102564103,-0.622070,0.075867,0.766724,2.220612,-2.243042,-0.186920,1,4,1,1,1,75.000000
2023-08-29 17:23:36.557,,,,,,,,,,,,,,,,,,,,,,,,,,,,,,,,,,,,,,/muse/elements/blink
2023-08-29 17:23:36.645,,,,,,,,,,,,,,,,,,,,,,,,,,,,,,,,,,,,,,/muse/elements/jaw_clench
2023-08-29 17:23:36.930,,,,,,,,,,,,,,,,,,,,,,,,,,,,,,,,,,,,,,/muse/elements/jaw_clench
2023-08-29 17:23:37.060,,,,,,,,,,,,,,,,,,,,,,,,,,,,,,,,,,,,,,/muse/elements/blink
2023-08-29 17:23:37.501,0,0.2887800980097273,0.6645630052473148,0.4585479992191122,0,0.09721041054702827,0.1986120366961775,0.5973869029876857,0,0.3048671779329517,0.5730675595281651,0.4200312123384255,0,1.134304298480878,0.698342346453772,0.8602947067013152,0,0.9255868217412709,0.4711229436929385,0.4818604295984002,1151.978021978022,795.7875457875458,787.3260073260074,954.1391941391942,1029.487179487179,-0.658020,0.060425,0.773987,3.544006,-3.200073,1.188812,1,2,1,1,1,75.000000
2023-08-29 17:23:37.521,,,,,,,,,,,,,,,,,,,,,,,,,,,,,,,,,,,,,,/muse/elements/jaw_clench
2023-08-29 17:23:37.763,,,,,,,,,,,,,,,,,,,,,,,,,,,,,,,,,,,,,,/muse/elements/jaw_clench
2023-08-29 17:23:37.961,,,,,,,,,,,,,,,,,,,,,,,,,,,,,,,,,,,,,,/muse/elements/jaw_clench
