TimeStamp,Delta_TP9,Delta_AF7,Delta_AF8,Delta_TP10,Theta_TP9,Theta_AF7,Theta_AF8,Theta_TP10,Alpha_TP9,Alpha_AF7,Alpha_AF8,Alpha_TP10,Beta_TP9,Beta_AF7,Beta_AF8,Beta_TP10,Gamma_TP9,Gamma_AF7,Gamma_AF8,Gamma_TP10,RAW_TP9,RAW_AF7,RAW_AF8,RAW_TP10,AUX_RIGHT,Accelerometer_X,Accelerometer_Y,Accelerometer_Z,Gyro_X,Gyro_Y,Gyro_Z,HeadBandOn,HSI_TP9,HSI_AF7,HSI_AF8,HSI_TP10,Battery,Elements
2023-08-28 18:17:12.791,,,,,,,,,,,,,,,,,,,,,,,,,,,,,,,,,,,,,,/muse/event/connected Muse-D424
2023-08-28 18:17:12.841,,,,,,,,,,,,,,,,,,,,,,,,,,,,,,,,,,,,,,/muse/elements/blink
2023-08-28 18:17:12.853,,,,,,,,,,,,,,,,,,,,,,,,,,,,,,,,,,,,,,/muse/elements/blink
2023-08-28 18:17:13.272,,,,,,,,,,,,,,,,,,,,,,,,,,,,,,,,,,,,,,/muse/elements/blink
2023-08-28 18:17:13.733,,,,,,,,,,,,,,,,,,,,,,,,,,,,,,,,,,,,,,/muse/elements/blink
2023-08-28 18:17:13.795,-0.222070064079128,0.0113959639861429,0.7458498788775293,0.8670610866953631,0.0858309978618003,-0.06287890692026842,0.4573501953005945,0.4800835584661803,0.7341658799988758,0.01806748420936488,0.5222656572308378,1.004097127623788,0.8562169495115516,0.5515783360061524,1.09039455304062,1.060435413163291,0.3998620034658181,0.6998640212241143,0.9503149629258619,1.078406171864871,902.5641025641025,788.5347985347986,801.025641025641,1413.882783882784,913.4432234432235,-0.341553,-0.023987,0.924377,0.089722,2.519684,3.162689,1,2,1,1,2,85.000000
2023-08-28 18:17:14.242,,,,,,,,,,,,,,,,,,,,,,,,,,,,,,,,,,,,,,/muse/elements/blink
2023-08-28 18:17:14.793,-0.222070064079128,0.1181407157635108,0.1853712923871238,0.8670610866953631,0.0858309978618003,-0.08871128522225875,0.2481484928519274,0.4800835584661803,0.7341658799988758,0.2190682148685885,0.5141186058762941,1.004097127623788,0.8562169495115516,0.7069346844007209,1.071565798603205,1.060435413163291,0.3998620034658181,0.3114378122788475,0.9750730734109626,1.078406171864871,906.5934065934066,786.1172161172161,807.4725274725275,1404.212454212454,916.2637362637363,-0.428589,0.013855,0.891602,0.882263,-4.874878,-0.792542,1,2,1,1,2,85.000000
2023-08-28 18:17:14.859,,,,,,,,,,,,,,,,,,,,,,,,,,,,,,,,,,,,,,/muse/elements/blink
2023-08-28 18:17:15.562,,,,,,,,,,,,,,,,,,,,,,,,,,,,,,,,,,,,,,/muse/elements/blink
2023-08-28 18:17:15.795,0.7322079213256947,0.01525019887830039,-0.2278062767772653,0.8670610866953631,0.6378269909709188,-0.1533523992124209,-0.07418121701691163,0.4800835584661803,0.8987910768800322,0.09487615561050691,0.3749172266187089,1.004097127623788,1.063669328734288,0.6738965012920151,1.003373820645971,1.060435413163291,0.8528047030571888,0.5211382751279745,0.763666299347735,1.078406171864871,822.7838827838829,784.5054945054945,800.6227106227107,967.4358974358975,706.3369963369963,-0.382324,0.046143,0.908142,1.181335,-3.028107,-0.605621,1,1,1,1,1,90.000000
2023-08-28 18:17:16.064,,,,,,,,,,,,,,,,,,,,,,,,,,,,,,,,,,,,,,/muse/elements/blink
2023-08-28 18:17:16.508,,,,,,,,,,,,,,,,,,,,,,,,,,,,,,,,,,,,,,/muse/elements/blink
2023-08-28 18:17:16.687,,,,,,,,,,,,,,,,,,,,,,,,,,,,,,,,,,,,,,/muse/elements/blink
2023-08-28 18:17:16.792,0.9649956383470986,0.7657604556651435,0.09237900275700378,0.8670610866953631,0.9082311594579832,0.6576625649386755,0.04576151837661071,0.4800835584661803,0.8440455118834398,0.8051765012185153,0.4668202014877745,1.004097127623788,1.172544715319153,0.6510468939163496,0.9402060969606644,1.060435413163291,0.9814882188839982,0.5796787495737385,0.6596759797914216,1.078406171864871,835.6776556776557,794.1758241758242,801.025641025641,1085.494505494506,759.1208791208792,-0.383118,0.043030,0.911926,1.936493,-3.349609,-1.547699,1,1,1,1,1,90.000000
2023-08-28 18:17:17.792,1.017614857768069,1.037479298450707,0.0128463715870924,0.8670610866953631,0.9517754676802893,0.8294526184623491,0.04797660554229605,0.4800835584661803,0.8439784778684686,0.8967934611543382,0.4070215407246304,1.004097127623788,1.183722335617279,0.6755876347394685,0.7602961021594246,1.060435413163291,0.98748033766483,0.5682405356027721,0.5981507219198477,1.078406171864871,905.3846153846154,799.0109890109891,793.7728937728938,1471.904761904762,1041.978021978022,-0.385376,0.045837,0.905762,2.003784,-3.701019,-0.216827,1,1,1,1,1,90.000000
2023-08-28 18:17:17.814,,,,,,,,,,,,,,,,,,,,,,,,,,,,,,,,,,,,,,/muse/elements/jaw_clench
2023-08-28 18:17:17.905,,,,,,,,,,,,,,,,,,,,,,,,,,,,,,,,,,,,,,/muse/elements/blink
2023-08-28 18:17:18.126,,,,,,,,,,,,,,,,,,,,,,,,,,,,,,,,,,,,,,/muse/elements/blink
2023-08-28 18:17:18.798,1.017614857768069,0.8830033757271832,0.1271225610467858,0.8670610866953631,0.9517754676802893,0.5644664577829598,-0.04183578833345433,0.4800835584661803,0.8439784778684686,0.6562644186382317,0.3660341443775618,1.004097127623788,1.183722335617279,0.6358444843763295,0.6846908226630841,1.060435413163291,0.98748033766483,0.4479122736034482,0.5454625001633189,1.078406171864871,836.4835164835165,775.2380952380953,801.4285714285714,1004.908424908425,810.6959706959707,-0.388550,0.052917,0.906982,2.781372,-4.613190,-0.478516,1,2,1,1,2,90.000000
2023-08-28 18:17:19.792,0.6136914675396342,0.5646837476745784,-0.06611730559090435,0.8670610866953631,0.4636024352704253,0.08485524326109234,-0.03194117510699136,0.4800835584661803,0.8406443632719668,0.1798616346085893,0.5660951920561222,1.004097127623788,0.9143400992448372,0.6160613952245911,0.6603068463582332,1.060435413163291,0.5145174061626873,0.3750331573495261,0.4494396952232548,1.078406171864871,838.901098901099,792.967032967033,783.6996336996338,1120.549450549451,856.2271062271062,-0.375732,0.048157,0.912720,1.906586,-4.560852,-0.919647,1,1,1,1,1,90.000000
2023-08-28 18:17:19.954,,,,,,,,,,,,,,,,,,,,,,,,,,,,,,,,,,,,,,/muse/elements/blink
2023-08-28 18:17:20.352,,,,,,,,,,,,,,,,,,,,,,,,,,,,,,,,,,,,,,/muse/elements/blink
2023-08-28 18:17:20.754,,,,,,,,,,,,,,,,,,,,,,,,,,,,,,,,,,,,,,/muse/elements/blink
2023-08-28 18:17:20.791,0.4954832619560254,1.187837752293732,-0.4808870604940924,0.8670610866953631,0.4534420638734648,0.8720623356386589,-0.1882858465453944,0.4800835584661803,0.7807441934402727,0.8350188620854878,0.5035927346113803,1.004097127623788,0.8702420838970361,0.6386424589404632,0.6212013431751588,1.060435413163291,0.4842396344159898,0.3676652947586803,0.407454397192427,1.078406171864871,884.4322344322345,810.2930402930403,790.5494505494506,1218.058608058608,923.1135531135532,-0.374573,0.043762,0.914795,1.383209,-4.179535,0.725250,1,1,1,1,1,90.000000
2023-08-28 18:17:21.457,,,,,,,,,,,,,,,,,,,,,,,,,,,,,,,,,,,,,,/muse/elements/blink
2023-08-28 18:17:21.799,0.4954832619560254,1.099614666403398,-0.08604997104960817,0.8670610866953631,0.4534420638734648,0.741493713509159,-0.1197427710736389,0.4800835584661803,0.7807441934402727,0.688680151588305,0.1370324814674084,1.004097127623788,0.8702420838970361,0.6614094820400617,0.7941425169349066,1.060435413163291,0.4842396344159898,0.3434835031888345,0.3839982157421563,1.078406171864871,832.8571428571429,813.919413919414,801.025641025641,667.2527472527473,544.3589743589744,-0.374451,0.038452,0.917114,2.123413,-4.605713,-0.889740,1,1,1,1,1,90.000000
2023-08-28 18:17:21.877,,,,,,,,,,,,,,,,,,,,,,,,,,,,,,,,,,,,,,/muse/elements/blink
2023-08-28 18:17:22.793,0.4954832619560254,0.4492314803195217,0.05502714167528169,0.8670610866953631,0.4534420638734648,0.2079210795302105,-0.07620588328557551,0.4800835584661803,0.7807441934402727,0.3130109615211494,0.2197176075401081,1.004097127623788,0.8702420838970361,0.5755671387072469,0.6678308917055253,1.060435413163291,0.4842396344159898,0.3136455223622961,0.3680548911151908,1.078406171864871,790.952380952381,794.981684981685,795.3846153846154,716.4102564102565,529.4505494505495,-0.374207,0.041382,0.909546,1.562653,-3.581390,-0.680389,1,2,1,1,2,90.000000
2023-08-28 18:17:23.107,,,,,,,,,,,,,,,,,,,,,,,,,,,,,,,,,,,,,,/muse/elements/blink
2023-08-28 18:17:23.284,,,,,,,,,,,,,,,,,,,,,,,,,,,,,,,,,,,,,,/muse/elements/blink
2023-08-28 18:17:23.791,0.4954832619560254,0.5714002597465028,-0.1217637186824594,0.8670610866953631,0.4534420638734648,0.5357136634679073,-0.3559019083236974,0.4800835584661803,0.7807441934402727,0.4503415289103788,0.2737848233864907,1.004097127623788,0.8702420838970361,0.6640497350460192,0.5789461041349245,1.060435413163291,0.4842396344159898,0.3318889839547967,0.3751098604888517,1.078406171864871,842.5274725274726,807.4725274725275,792.967032967033,846.5567765567765,750.6593406593407,-0.377380,0.042297,0.911926,2.071075,-4.074860,-0.560760,1,2,1,1,2,90.000000
2023-08-28 18:17:23.922,,,,,,,,,,,,,,,,,,,,,,,,,,,,,,,,,,,,,,/muse/elements/blink
2023-08-28 18:17:24.099,,,,,,,,,,,,,,,,,,,,,,,,,,,,,,,,,,,,,,/muse/elements/blink
2023-08-28 18:17:24.408,,,,,,,,,,,,,,,,,,,,,,,,,,,,,,,,,,,,,,/muse/elements/blink
2023-08-28 18:17:24.796,0.4954832619560254,0.7426336576220341,-0.1455812340424257,0.8670610866953631,0.4534420638734648,0.4935935933465804,-0.1371907872614979,0.4800835584661803,0.7807441934402727,0.5165148979757008,0.3004376793185605,1.004097127623788,0.8702420838970361,0.7171348827101902,0.5785344364490974,1.060435413163291,0.4842396344159898,0.4574504096446261,0.3703566012505638,1.078406171864871,724.4688644688645,803.4432234432235,807.4725274725275,267.1428571428572,455.3113553113553,-0.434814,0.035950,0.890198,-0.770111,-10.878754,-1.973877,1,2,1,1,2,90.000000
2023-08-28 18:17:25.314,,,,,,,,,,,,,,,,,,,,,,,,,,,,,,,,,,,,,,/muse/elements/blink
2023-08-28 18:17:25.555,,,,,,,,,,,,,,,,,,,,,,,,,,,,,,,,,,,,,,/muse/elements/blink
2023-08-28 18:17:25.792,0.4954832619560254,0.9730878037745311,0.1499192408886441,0.8670610866953631,0.4534420638734648,0.5368357320165262,-0.09497011978790335,0.4800835584661803,0.7807441934402727,0.6538078801651398,0.3799104825655319,1.004097127623788,0.8702420838970361,0.6672412681900964,0.6090304487284433,1.060435413163291,0.4842396344159898,0.4581118496105137,0.121655048609136,1.078406171864871,718.021978021978,779.2673992673992,804.2490842490843,327.5824175824176,485.9340659340659,-0.406677,0.042603,0.905273,2.489777,-4.254303,-2.011261,1,2,1,1,2,90.000000
2023-08-28 18:17:26.061,,,,,,,,,,,,,,,,,,,,,,,,,,,,,,,,,,,,,,/muse/elements/blink
2023-08-28 18:17:26.436,,,,,,,,,,,,,,,,,,,,,,,,,,,,,,,,,,,,,,/muse/elements/blink
2023-08-28 18:17:26.656,,,,,,,,,,,,,,,,,,,,,,,,,,,,,,,,,,,,,,/muse/elements/blink
2023-08-28 18:17:26.799,0.4954832619560254,1.050673858172742,0.05116017385278281,0.8670610866953631,0.4534420638734648,0.8519456937549758,-0.05379160672208114,0.4800835584661803,0.7807441934402727,0.7053787389963893,0.312882626072276,1.004097127623788,0.8702420838970361,0.4361879369357864,0.4377308336593843,1.060435413163291,0.4842396344159898,0.4232667009471616,0.2109625809240729,1.078406171864871,750.2564102564103,794.981684981685,795.7875457875458,429.9267399267399,475.4578754578754,-0.395142,0.036987,0.909241,2.377625,-4.052429,-1.076660,1,2,1,1,2,90.000000
2023-08-28 18:17:27.379,,,,,,,,,,,,,,,,,,,,,,,,,,,,,,,,,,,,,,/muse/elements/blink
2023-08-28 18:17:27.558,,,,,,,,,,,,,,,,,,,,,,,,,,,,,,,,,,,,,,/muse/elements/blink
2023-08-28 18:17:27.791,0.4954832619560254,0.7091994207736443,-0.5329179766760924,0.8670610866953631,0.4534420638734648,0.702368242631447,-0.1713245780709393,0.4800835584661803,0.7807441934402727,0.547593729019466,0.2786987160062541,1.004097127623788,0.8702420838970361,0.4126198407024935,0.474730202700002,1.060435413163291,0.4842396344159898,0.4714645186443877,0.2845183798040597,1.078406171864871,662.014652014652,795.7875457875458,801.8315018315019,97.50915750915752,463.7728937728938,-0.389526,0.041504,0.906738,1.839294,-3.521576,-0.867310,1,2,1,1,2,90.000000
2023-08-28 18:17:28.791,0.7357411330874138,0.3400716548586883,-0.3716577445313902,0.8670610866953631,0.6319950114324433,0.1759454979328488,-0.03046285724070111,0.4800835584661803,1.093027461163109,0.4054144675147383,0.5599473713204645,1.004097127623788,0.8435893861268007,0.3370111733578258,0.4391606234141121,1.060435413163291,0.2836847516886834,0.4201363277993636,0.1321057082283845,1.078406171864871,657.5824175824176,798.2051282051282,804.6520146520147,96.30036630036631,484.3223443223443,-0.393005,0.041565,0.911560,1.801910,-3.147736,-0.957031,1,1,1,1,1,90.000000
2023-08-28 18:17:29.483,,,,,,,,,,,,,,,,,,,,,,,,,,,,,,,,,,,,,,/muse/elements/blink
2023-08-28 18:17:29.791,0.6959980214015832,0.6959172969280414,-0.1631187540541889,0.8670610866953631,0.5057658335781308,0.4726086912423709,-0.0672335401317832,0.4800835584661803,0.8455620727691275,0.9446613543719633,0.5529776085846237,1.004097127623788,0.7461537377196129,0.4584919921227691,0.4523405830724632,1.060435413163291,0.3439101781889626,0.3905098652790625,0.2420662698991036,1.078406171864871,683.7728937728938,810.2930402930403,800.2197802197802,102.3443223443224,541.941391941392,-0.395447,0.048218,0.903870,2.018738,-1.390686,1.256104,1,1,1,1,1,90.000000
2023-08-28 18:17:30.791,0.8987186577065928,0.9506079200812791,-0.03241132394913036,0.8670610866953631,0.6354658231162875,0.6880834301019533,-0.3942924506249562,0.4800835584661803,0.8455620727691275,0.9446613543719633,0.3874965916431138,1.004097127623788,0.7754526407658892,0.5399178528658097,0.3457720053860892,1.060435413163291,0.3414463854188741,0.3607792086399104,0.2223992662079544,1.078406171864871,672.893772893773,802.6373626373627,793.3699633699634,116.043956043956,402.9304029304029,-0.368835,0.058105,0.919006,1.674805,-4.209442,-0.463562,1,1,1,1,1,90.000000
2023-08-28 18:17:30.805,,,,,,,,,,,,,,,,,,,,,,,,,,,,,,,,,,,,,,/muse/elements/blink
2023-08-28 18:17:31.222,,,,,,,,,,,,,,,,,,,,,,,,,,,,,,,,,,,,,,/muse/elements/blink
2023-08-28 18:17:31.791,0.6922260522006275,0.02265124318728016,-0.14050341328664,0.8670610866953631,0.7427121045156514,-0.1141023564200105,-0.1880995784083516,0.4800835584661803,0.8579195630259698,0.3842306186692487,0.2228983433330814,1.004097127623788,0.8834964702996125,0.3604932300373826,0.2587057853072142,1.060435413163291,0.3185970805565491,0.2532654996501707,0.1688579020846866,1.078406171864871,695.0549450549451,794.981684981685,800.2197802197802,281.2454212454213,600.7692307692308,-0.376404,0.051147,0.913208,2.033691,-4.702911,-1.203766,1,1,1,1,1,90.000000
2023-08-28 18:17:32.516,,,,,,,,,,,,,,,,,,,,,,,,,,,,,,,,,,,,,,/muse/elements/blink
2023-08-28 18:17:32.791,0.4106630808606215,0.708899726155202,-0.1862900121355673,0.241188130675273,0.6293044575562157,0.5355515894024718,-0.1278776389105868,0.6010097310959416,0.8243837786242021,0.942842249556243,0.2790794789127587,1.121647346976471,0.9466130754602792,0.3189221402772408,0.3958401529385154,1.020069783849301,0.4147465416624005,0.2215233824686552,0.00657168149154003,0.8910791208629623,740.5860805860806,811.0989010989011,790.952380952381,280.8424908424909,836.8864468864469,-0.380127,0.053284,0.914978,2.071075,-3.678589,-0.254211,1,1,1,1,1,90.000000
2023-08-28 18:17:32.867,,,,,,,,,,,,,,,,,,,,,,,,,,,,,,,,,,,,,,/muse/elements/blink
2023-08-28 18:17:33.221,,,,,,,,,,,,,,,,,,,,,,,,,,,,,,,,,,,,,,/muse/elements/blink
2023-08-28 18:17:33.799,0.2199509539571876,1.15053067978914,-0.03033145283055151,0.2152911026672994,0.4460535425618636,0.9481842266234825,-0.01052538760273094,0.3120776758406929,0.4137852049607885,0.942386954232325,0.3622317841612069,1.093660888121261,1.013465261682906,0.4752278012380055,0.5237063304006495,0.8416945041766188,0.4835564103715894,0.1918422504001805,0.1968046856100623,0.8646799124835738,803.4432234432235,795.3846153846154,803.4432234432235,803.8461538461539,770.8058608058608,-0.376709,0.051697,0.915649,1.973877,-3.947754,-1.054230,1,1,1,1,1,90.000000
2023-08-28 18:17:34.795,-0.19738579988227,0.04113573085517715,0.08424728473234488,0.2152911026672994,0.2548882406054216,-0.1926993761408635,0.0506634382723355,0.3120776758406929,0.6890221647381077,0.1810792018428052,0.184607234815702,1.093660888121261,0.5894150547560232,0.4281394996121559,0.3568637787143364,0.8416945041766188,0.4447961795382331,0.2716535054931715,0.201126542879562,0.8646799124835738,744.2124542124542,803.8461538461539,796.5934065934066,675.3113553113553,698.6813186813187,-0.379822,0.038086,0.908142,1.727142,-3.244934,-1.233673,1,1,1,1,1,90.000000
2023-08-28 18:17:34.871,,,,,,,,,,,,,,,,,,,,,,,,,,,,,,,,,,,,,,/muse/elements/blink
2023-08-28 18:17:35.791,-0.19738579988227,-0.06563161091234589,0.1586415731259865,0.2152911026672994,0.2548882406054216,-0.2213759439503885,0.09141005920582121,0.3120776758406929,0.6890221647381077,-0.1382989351457971,0.1821192822467055,1.093660888121261,0.5894150547560232,0.4475738335200178,0.3865477083503095,0.8416945041766188,0.4447961795382331,0.3371889441505399,0.05583194899810157,0.8646799124835738,737.7655677655678,799.8168498168499,799.8168498168499,554.4322344322344,875.5677655677656,-0.379517,0.045044,0.913879,1.555176,-2.287903,-0.373840,1,1,1,1,1,90.000000
2023-08-28 18:17:35.908,,,,,,,,,,,,,,,,,,,,,,,,,,,,,,,,,,,,,,/muse/elements/blink
2023-08-28 18:17:36.085,,,,,,,,,,,,,,,,,,,,,,,,,,,,,,,,,,,,,,/muse/elements/blink
2023-08-28 18:17:36.285,,,,,,,,,,,,,,,,,,,,,,,,,,,,,,,,,,,,,,/muse/elements/blink
2023-08-28 18:17:36.592,,,,,,,,,,,,,,,,,,,,,,,,,,,,,,,,,,,,,,/muse/elements/blink
2023-08-28 18:17:36.795,-0.19738579988227,0.8280154672203442,0.3701501474850116,0.2152911026672994,0.2548882406054216,0.7435143585637931,0.1305310515200158,0.3120776758406929,0.6890221647381077,0.6486983924416801,0.2002470486137766,1.093660888121261,0.5894150547560232,0.2664043211143504,0.2586900298891278,0.8416945041766188,0.4447961795382331,0.02979560509177624,0.06785207750763826,0.8646799124835738,851.7948717948718,803.4432234432235,805.8608058608058,1155.201465201465,996.4468864468864,-0.371826,0.038513,0.909729,1.652374,-5.981445,-2.310333,1,1,1,1,1,85.000000
2023-08-28 18:17:37.801,1.170528776053854,0.569790080131641,0.6419292329123242,0.2152911026672994,0.7044966458356958,0.5304458392073431,-0.08149359148499878,0.3120776758406929,0.9668138036470802,0.6445835275865218,0.2802880446411949,1.093660888121261,0.9350450709318211,0.4423478143314191,0.04722171126890269,0.8416945041766188,0.6960191376878155,0.1106476546022098,-0.01550422671890574,0.8646799124835738,824.3956043956044,786.5201465201466,806.6666666666667,1079.85347985348,942.4542124542124,-0.361511,0.027649,0.922791,1.764526,-3.745880,-0.971985,1,2,1,1,2,85.000000
2023-08-28 18:17:38.792,0.5861206538365026,-0.1225184513046201,-0.1412701372087645,0.2152911026672994,0.06265210961915768,-0.1673503154917838,-0.05949266977520608,0.3120776758406929,0.8876837236394415,0.2863412506150981,0.2334327947980463,1.093660888121261,0.8401711340771399,0.6135609120402441,0.2829590104024229,0.8416945041766188,0.7975305840997345,0.2752301931020148,0.001277320055853266,0.8646799124835738,791.3553113553114,798.2051282051282,799.4139194139194,938.8278388278388,911.8315018315019,-0.362305,0.033875,0.921265,1.734619,-2.751465,-0.635529,1,1,1,1,1,85.000000
2023-08-28 18:17:39.559,,,,,,,,,,,,,,,,,,,,,,,,,,,,,,,,,,,,,,/muse/elements/blink
2023-08-28 18:17:39.791,0.7070387299071929,0.5375640227569479,-0.0920104257818217,0.2152911026672994,0.1932875503123591,0.5269413962325709,-0.1427445974677781,0.3120776758406929,0.7889155459835204,0.7777985352698327,0.1016122057823848,1.093660888121261,0.7122552754095792,0.5361057905216217,0.1499855653483843,0.8416945041766188,0.8963273393694782,0.2880604822935526,-0.07825784487198942,0.8646799124835738,888.0586080586081,805.4578754578755,798.6080586080586,1417.509157509158,1031.098901098901,-0.360229,0.037231,0.921936,2.100983,-4.329071,-0.665436,1,1,1,1,1,85.000000
2023-08-28 18:17:40.791,0.7070387299071929,0.6409312185707851,0.09662901635948211,0.2152911026672994,0.1932875503123591,0.1024265688390327,-0.3108413939536183,0.3120776758406929,0.7889155459835204,0.6798443091024963,0.08249722168342327,1.093660888121261,0.7122552754095792,0.4857004020963069,-0.04926475880177442,0.8416945041766188,0.8963273393694782,0.3124532458226931,-0.1641839419393703,0.8646799124835738,884.4322344322345,799.0109890109891,792.5641025641025,1324.029304029304,976.3003663003664,-0.356506,0.040100,0.921082,1.973877,-3.663635,-0.164490,1,1,1,1,1,85.000000
2023-08-28 18:17:41.151,,,,,,,,,,,,,,,,,,,,,,,,,,,,,,,,,,,,,,/muse/elements/blink
2023-08-28 18:17:41.476,,,,,,,,,,,,,,,,,,,,,,,,,,,,,,,,,,,,,,/muse/elements/blink
2023-08-28 18:17:41.792,0.9818775178185067,0.5543386462296493,-0.2359287667512577,0.2152911026672994,0.7932110076713951,0.02023325516615859,-0.2702564935952041,0.3120776758406929,1.182106077540338,0.4979723077136943,0.2386697319789875,1.093660888121261,0.8089547817007243,0.4052314717450787,-0.02671696167238588,0.8416945041766188,0.5794548863854861,0.3535126766364337,-0.2459764278385008,0.8646799124835738,855.0183150183151,796.996336996337,800.6227106227107,1215.238095238095,1201.135531135531,-0.355042,0.037292,0.922302,2.213135,-3.985138,-0.620575,1,1,1,1,1,85.000000
2023-08-28 18:17:42.608,,,,,,,,,,,,,,,,,,,,,,,,,,,,,,,,,,,,,,/muse/elements/blink
2023-08-28 18:17:42.797,1.21940999105396,0.4296511900580905,-0.3211635953591541,0.2152911026672994,1.001043985128367,0.09179373350096899,-0.3123696066029365,0.3120776758406929,1.191781373668451,0.5611025694429848,0.3785003737012481,1.093660888121261,0.7508490072652573,0.4439551144593034,0.05645764078371972,0.8416945041766188,0.5442218937274326,0.3400097191557258,-0.3054991075222407,0.8646799124835738,898.1318681318681,805.0549450549451,798.6080586080586,1434.835164835165,963.4065934065934,-0.357544,0.032715,0.923767,1.981354,-2.893524,-0.568237,1,1,1,1,1,85.000000
2023-08-28 18:17:43.525,,,,,,,,,,,,,,,,,,,,,,,,,,,,,,,,,,,,,,/muse/elements/blink
2023-08-28 18:17:43.790,1.21940999105396,0.6315612872764272,-0.5480991663438958,0.2152911026672994,1.001043985128367,0.328085759487503,-0.2963542676966465,0.3120776758406929,1.191781373668451,0.5922157498173761,0.2880592959600479,1.093660888121261,0.7508490072652573,0.4919826831780607,0.1704875231634713,0.8416945041766188,0.5442218937274326,0.2591836724447537,-0.2381766584379066,0.8646799124835738,910.2197802197802,790.1465201465202,794.5787545787546,1424.358974358974,994.0293040293041,-0.354431,0.030640,0.919678,2.228088,-3.327179,-0.672913,1,1,1,1,1,85.000000
2023-08-28 18:17:44.713,,,,,,,,,,,,,,,,,,,,,,,,,,,,,,,,,,,,,,/muse/elements/blink
2023-08-28 18:17:44.791,0.784278537000502,0.2389116305779924,-0.7302599285098269,0.2152911026672994,0.5506372859997908,-0.07836920477738525,-0.01603975152710898,0.3120776758406929,0.8524695146238708,0.1551267518492545,0.0321829378087582,1.093660888121261,0.799344849153525,0.3477872317845084,-0.09975095619757905,0.8416945041766188,0.4885127530052323,0.1078678080907137,-0.3023979672150678,0.8646799124835738,884.8351648351648,801.4285714285714,793.3699633699634,1370.769230769231,913.8461538461539,-0.352783,0.044373,0.927856,2.160797,-3.858032,-0.755157,1,1,1,1,1,85.000000
2023-08-28 18:17:45.790,0.6615001263344401,-0.1983302150321157,-0.3199594792326477,0.2152911026672994,0.5205059896944018,-0.1565371408595645,-0.312431593120015,0.3120776758406929,0.967495885618217,0.1976169833428595,-0.07028813890163806,1.093660888121261,0.884506204173213,0.5021285569892382,-0.02766264578172421,0.8416945041766188,0.5020569850233824,0.1511018755438034,-0.3179666200563061,0.8646799124835738,919.4871794871796,799.8168498168499,790.952380952381,1386.483516483516,846.1538461538462,-0.354492,0.037109,0.921875,1.547699,-3.043060,-0.396271,1,1,1,1,1,85.000000
2023-08-28 18:17:46.166,,,,,,,,,,,,,,,,,,,,,,,,,,,,,,,,,,,,,,/muse/elements/blink
2023-08-28 18:17:46.542,,,,,,,,,,,,,,,,,,,,,,,,,,,,,,,,,,,,,,/muse/elements/blink
2023-08-28 18:17:46.794,0.7986791759695779,-0.2214011450153697,-0.4159890152872319,0.6206543857110701,0.9984485405117632,-0.01594098816350919,-0.341809072154321,0.9620249115242324,0.8172335852007286,0.3011527539555424,0.1984634700331976,0.611565747981869,0.8380585250316305,0.4533936074208606,0.03743619539113199,1.176512618354959,0.3502523326440614,0.1609606861936419,-0.1853527202011389,0.885200833486589,869.1208791208792,788.1318681318681,795.3846153846154,1402.197802197802,1019.010989010989,-0.363220,0.031738,0.918213,1.428070,-2.115936,-0.500946,1,1,1,1,1,85.000000
2023-08-28 18:17:46.958,,,,,,,,,,,,,,,,,,,,,,,,,,,,,,,,,,,,,,/muse/elements/blink
2023-08-28 18:17:47.462,,,,,,,,,,,,,,,,,,,,,,,,,,,,,,,,,,,,,,/muse/elements/blink
2023-08-28 18:17:47.791,0.7453776394450918,0.7258193643739949,-0.4610515508735039,0.6206543857110701,1.186677777944424,0.6409399083181186,-0.1327373371433341,0.9620249115242324,0.7655991155254782,0.8134303853664381,0.2276287133308829,0.611565747981869,0.723013033885148,0.4220586976832758,0.1223341571314817,1.176512618354959,0.254380653889731,0.2158807035282323,-0.05010377280439962,0.885200833486589,919.4871794871796,799.0109890109891,803.4432234432235,1421.941391941392,957.3626373626374,-0.362427,0.033691,0.919006,1.958923,-4.134674,-0.605621,1,1,1,1,1,85.000000
2023-08-28 18:17:48.793,0.7453776394450918,0.7130484778784663,-0.2081898130701246,0.6206543857110701,1.186677777944424,0.4498962542240479,-0.1164284226214404,0.9620249115242324,0.7655991155254782,0.4338501452728926,0.2060322418742287,0.611565747981869,0.723013033885148,0.3937758771644774,0.2433321482367633,1.176512618354959,0.254380653889731,0.2455468918562146,0.01652144890055596,0.885200833486589,909.0109890109891,792.967032967033,788.5347985347986,1290.18315018315,835.2747252747253,-0.356445,0.031067,0.919983,1.906586,-3.117828,-1.009369,1,1,1,1,1,85.000000
2023-08-28 18:17:49.291,,,,,,,,,,,,,,,,,,,,,,,,,,,,,,,,,,,,,,/muse/elements/blink
2023-08-28 18:17:49.791,0.3082856755291387,0.1900140298519723,-0.1376806224802378,0.5429713841346908,0.562764238022016,-0.1343482504177922,-0.3542566977918986,0.5040036795912168,0.7513423305738999,0.2231212501619805,0.1365319369013354,0.6683595549167026,0.6500437900075592,0.5094345740989491,0.1834894979674679,0.869203045336132,0.4785163382355426,0.0698967630596837,-0.1763135270920505,0.8141572275014487,899.7435897435897,799.8168498168499,794.5787545787546,1380.03663003663,888.0586080586081,-0.360046,0.037231,0.921753,1.801910,-3.170166,-0.471039,1,1,1,1,1,85.000000
2023-08-28 18:17:50.519,,,,,,,,,,,,,,,,,,,,,,,,,,,,,,,,,,,,,,/muse/elements/blink
2023-08-28 18:17:50.798,0.4344241382869838,0.278190237236958,-0.2584322963090186,0.579074943593143,0.3337268164292573,-0.06072779131212091,-0.3255526371068311,0.2355873965424489,0.7623674060646001,0.2461966326479945,0.116191471497956,0.6918153228126829,0.8666724259568672,0.6018891652074724,0.09194146981934069,0.9089338245656362,0.4794488424211237,0.1894887456044127,-0.1235173413913081,0.8293187264026735,862.6739926739926,791.7582417582418,795.7875457875458,1060.512820512821,759.92673992674,-0.356689,0.037170,0.919678,1.809387,-3.237457,-0.852356,1,1,1,1,1,85.000000
2023-08-28 18:17:51.799,0.6071931347272211,0.2683865837257629,-0.2861823253719251,0.4947590115022937,0.3996137716521593,0.1186287911810287,-0.1287758256016922,0.2206001388667172,0.5671327218689195,0.2946258323363576,0.3033303980675011,0.6435480426763368,1.08791118139926,0.4303149027407984,0.03016488796153692,0.9677303244230473,0.3397589889671381,0.1995651286841525,-0.2352182872454359,0.8821623568264908,892.0879120879121,787.7289377289378,796.1904761904763,1265.604395604396,826.007326007326,-0.338989,0.009949,0.914978,3.117828,-3.035583,-1.211243,1,1,1,1,1,85.000000
2023-08-28 18:17:52.791,0.2464282291267531,0.2333012522923077,-0.09296068323263093,0.4947590115022937,0.3737127685804645,0.2058270179872481,-0.02724825184836236,0.2206001388667172,0.8051035457363954,0.2921208968059424,0.4192299320100804,0.6435480426763368,0.9827322669902721,0.4735703559833857,0.007122491738208079,0.9677303244230473,0.5679243049245012,0.4377758614361908,-0.1959482281091728,0.8821623568264908,898.5347985347986,804.6520146520147,796.996336996337,1394.542124542125,1007.326007326007,-0.350708,0.045593,0.928955,2.071075,-4.673004,-1.749573,1,1,1,1,1,85.000000
2023-08-28 18:17:53.332,,,,,,,,,,,,,,,,,,,,,,,,,,,,,,,,,,,,,,/muse/elements/blink
2023-08-28 18:17:53.791,0.03284750807043207,0.7003107883382417,-0.150436181752415,0.4947590115022937,0.2030169853657688,0.4105741098304371,-0.1683537246917708,0.2206001388667172,0.5360566947925418,0.466356973682906,0.2719829251600869,0.6435480426763368,1.00695647862792,0.3641853141578329,-0.0009683693784167537,0.9677303244230473,0.6312999921919956,0.3291495375135669,-0.03837708835143581,0.8821623568264908,860.6593406593407,768.3882783882784,796.996336996337,1380.43956043956,969.4505494505495,-0.348511,0.034851,0.917053,1.226196,-3.282318,-1.136475,1,1,1,1,1,85.000000
2023-08-28 18:17:53.965,,,,,,,,,,,,,,,,,,,,,,,,,,,,,,,,,,,,,,/muse/elements/blink
2023-08-28 18:17:54.791,-0.331386658168746,0.8059007710836852,-0.2309857951603688,0.4947590115022937,0.02198256800578227,0.4230529741737142,-0.2734313026890517,0.2206001388667172,0.4595824007304518,0.4742053900410514,-0.03114640731317733,0.6435480426763368,0.9215760053068079,0.5005588420753257,0.07731297242468295,0.9677303244230473,0.5888151161154948,0.2393894177073877,-0.1654245829089102,0.8821623568264908,904.5787545787546,801.4285714285714,803.040293040293,1326.849816849817,962.1978021978023,-0.351929,0.044373,0.922791,2.205658,-3.760834,-1.016846,1,1,1,1,1,85.000000
2023-08-28 18:17:54.796,,,,,,,,,,,,,,,,,,,,,,,,,,,,,,,,,,,,,,/muse/elements/blink
2023-08-28 18:17:55.791,0.659691513217542,-0.2020439016300731,-0.4972207190285217,0.4977327630019694,0.5604198464786608,-0.09118096648776965,-0.2754352526828172,0.7093766142917892,0.8570413787098001,0.2251735096058459,-0.0197925294567148,1.098809565592209,0.8968662103696298,0.4429583526664356,0.2269545196040406,1.092724053817715,0.4161474869803339,0.1910552806423323,-0.2833102310944607,1.078561175758504,904.1758241758242,798.2051282051282,785.3113553113553,1423.553113553114,953.3333333333334,-0.346497,0.052002,0.927490,2.235565,-3.603821,-0.575714,1,1,1,1,1,85.000000
2023-08-28 18:17:55.915,,,,,,,,,,,,,,,,,,,,,,,,,,,,,,,,,,,,,,/muse/elements/blink
2023-08-28 18:17:56.378,,,,,,,,,,,,,,,,,,,,,,,,,,,,,,,,,,,,,,/muse/elements/blink
2023-08-28 18:17:56.791,0.3646128367219442,-0.09699334847878528,-0.2491520761926679,0.4977327630019694,0.3758439491891973,-0.06742092813393365,-0.2194110183552527,0.7093766142917892,0.8228604039387095,0.2570322301085567,-0.005838801816145862,1.098809565592209,0.8695781170317711,0.5297830400812027,0.1258264784413095,1.092724053817715,0.3321523418296314,0.1412796674101047,-0.1457774754406445,1.078561175758504,886.0439560439561,796.5934065934066,795.3846153846154,1396.556776556777,1108.058608058608,-0.343445,0.042358,0.926331,2.100983,-3.072968,-0.276642,1,1,1,1,1,85.000000
2023-08-28 18:17:56.796,,,,,,,,,,,,,,,,,,,,,,,,,,,,,,,,,,,,,,/muse/elements/blink
2023-08-28 18:17:57.017,,,,,,,,,,,,,,,,,,,,,,,,,,,,,,,,,,,,,,/muse/elements/blink
2023-08-28 18:17:57.796,0.4742690671400018,0.256624532595482,-0.1094067893068488,0.4977327630019694,0.6352546164588178,0.2447989270680557,-0.3149386465078771,0.7093766142917892,0.7280865872121838,0.4290711777639483,0.01604665041994969,1.098809565592209,0.9418665781454599,0.5178098773708107,0.105156915640111,1.092724053817715,0.07260728745327789,0.03332417873565669,-0.2362707610246803,1.078561175758504,900.1465201465202,786.1172161172161,789.7435897435897,1371.978021978022,832.8571428571429,-0.349304,0.047913,0.921814,2.048645,-3.596344,-0.882263,1,1,1,1,1,85.000000
2023-08-28 18:17:58.791,0.4742690671400018,0.0718763195343774,-0.3050814201572143,0.4977327630019694,0.6352546164588178,0.1829287038422143,-0.2683335704440892,0.7093766142917892,0.7280865872121838,0.360297490930878,-0.06515288882281844,1.098809565592209,0.9418665781454599,0.4437072810914967,0.1493305990663741,1.092724053817715,0.07260728745327789,0.3107784199349489,-0.1330363474413748,1.078561175758504,911.0256410256411,794.981684981685,794.5787545787546,1425.970695970696,1001.684981684982,-0.353333,0.042847,0.923035,1.839294,-2.751465,-0.613098,1,1,1,1,1,85.000000
2023-08-28 18:17:59.669,,,,,,,,,,,,,,,,,,,,,,,,,,,,,,,,,,,,,,/muse/elements/blink
2023-08-28 18:17:59.795,0.6520284616223789,0.1882734508887243,-0.4313276231996606,0.2149051339950001,0.6492147513642066,0.20546848717215,-0.3047290430313311,0.4952171656963437,0.832569186058544,0.2814414004885872,-0.08694165406271048,0.8955490857153027,0.6757056419480072,0.3542447937375514,-0.0432436349263155,0.7959977875416371,0.3882358047555249,0.190700113016149,-0.1944881093914768,0.5657055152782422,901.3553113553114,791.7582417582418,793.3699633699634,1330.476190476191,946.0805860805862,-0.348694,0.044067,0.921082,2.228088,-3.469238,-0.328979,1,1,1,1,1,85.000000
2023-08-28 18:18:00.790,,,,,,,,,,,,,,,,,,,,,,,,,,,,,,,,,,,,,,/muse/elements/blink
2023-08-28 18:18:00.801,0.7583917556879264,0.7827027835396424,-0.3548152863341319,-0.06599767885488705,0.7375482060833289,0.4007755977248403,-0.02696668431141432,0.4729728557150311,0.7695825065614255,0.186952846072116,-0.01987180871343537,0.8328166103924829,0.5681868259278837,0.2504232333233673,-0.0155989729668804,0.7962887145134442,0.2188856517741748,0.08145711318085484,-0.3043899889576261,0.5142042649952865,838.901098901099,775.2380952380953,798.6080586080586,1340.549450549451,933.5897435897436,-0.388000,0.040161,0.907166,1.742096,-0.231781,-0.889740,1,1,1,1,1,85.000000
2023-08-28 18:18:01.075,,,,,,,,,,,,,,,,,,,,,,,,,,,,,,,,,,,,,,/muse/elements/blink
2023-08-28 18:18:01.669,,,,,,,,,,,,,,,,,,,,,,,,,,,,,,,,,,,,,,/muse/elements/blink
2023-08-28 18:18:01.795,0.7583917556879264,0.93867436719146,0.4810019253812873,-0.06599767885488705,0.7375482060833289,0.8090270341919349,0.2676234290156053,0.4729728557150311,0.7695825065614255,0.7450206894706097,0.4421176137979584,0.8328166103924829,0.5681868259278837,0.4172142296823666,0.1307252093130229,0.7962887145134442,0.2188856517741748,0.218030855573558,0.2298154936975504,0.5142042649952865,919.0842490842491,795.3846153846154,784.9084249084249,1343.369963369963,1189.85347985348,-0.375854,0.046326,0.916931,1.360779,-2.968292,-1.368256,1,1,1,1,1,85.000000
2023-08-28 18:18:01.890,,,,,,,,,,,,,,,,,,,,,,,,,,,,,,,,,,,,,,/muse/elements/blink
2023-08-28 18:18:02.089,,,,,,,,,,,,,,,,,,,,,,,,,,,,,,,,,,,,,,/muse/elements/blink
2023-08-28 18:18:02.790,0.7583917556879264,0.7255645991306227,0.4558055125833077,-0.06599767885488705,0.7375482060833289,0.6044991668328767,0.1190136482577849,0.4729728557150311,0.7695825065614255,0.5353008747462868,0.4421176137979584,0.8328166103924829,0.5681868259278837,0.252231348000188,0.08391432544557086,0.7962887145134442,0.2188856517741748,0.1856906341333821,0.000994547733876885,0.5142042649952865,840.5128205128206,802.6373626373627,790.952380952381,1171.318681318681,952.5274725274726,-0.363892,0.047546,0.922119,2.302856,-5.375824,-0.463562,1,2,1,1,2,85.000000
2023-08-28 18:18:02.832,,,,,,,,,,,,,,,,,,,,,,,,,,,,,,,,,,,,,,/muse/elements/blink
2023-08-28 18:18:03.095,,,,,,,,,,,,,,,,,,,,,,,,,,,,,,,,,,,,,,/muse/elements/blink
2023-08-28 18:18:03.595,,,,,,,,,,,,,,,,,,,,,,,,,,,,,,,,,,,,,,/muse/elements/blink
2023-08-28 18:18:03.791,0.7583917556879264,0.6899570417802288,-0.1626531868595257,-0.06599767885488705,0.7375482060833289,0.3812086688385605,-0.3996800858972981,0.4729728557150311,0.7695825065614255,0.8027422954915603,-0.0005699172744554429,0.8328166103924829,0.5681868259278837,0.3761139436536471,0.2162969373323655,0.7962887145134442,0.2188856517741748,0.2435698073242671,-0.05197420019329677,0.5142042649952865,906.1904761904763,793.7728937728938,792.5641025641025,1408.241758241758,959.3772893772895,-0.369873,0.045166,0.918335,1.861725,-3.282318,-0.358887,1,2,1,1,2,85.000000
2023-08-28 18:18:04.791,0.7583917556879264,0.8262470438024547,-0.2043694345579498,-0.06599767885488705,0.7375482060833289,0.6280066247544109,-0.1422155778480739,0.4729728557150311,0.7695825065614255,0.9093348362410461,0.1363616211761249,0.8328166103924829,0.5681868259278837,0.4982233860579516,0.1616829500841455,0.7962887145134442,0.2188856517741748,0.2052797318253463,-0.05032437262819333,0.5142042649952865,880,795.7875457875458,799.8168498168499,1332.087912087912,1165.677655677656,-0.365051,0.045654,0.920959,2.377625,-3.895416,-0.747681,1,2,1,1,2,85.000000
2023-08-28 18:18:04.925,,,,,,,,,,,,,,,,,,,,,,,,,,,,,,,,,,,,,,/muse/elements/blink
2023-08-28 18:18:05.791,0.4705434059302681,0.1309606813162939,-0.3589893319795961,-0.06599767885488705,0.6885799071559929,-0.05188964219019448,-0.0435289161653921,0.4729728557150311,0.8368646833342021,0.1892753951965863,0.2078124057743529,0.8328166103924829,0.8848723995492951,0.4366202873316799,0.1293163696301579,0.7962887145134442,0.2759227749371229,0.02460919987244453,-0.1240755071961843,0.5142042649952865,856.6300366300367,801.025641025641,797.3992673992674,1156.813186813187,1064.139194139194,-0.367859,0.039246,0.916504,1.689758,-3.828125,-0.859833,1,1,1,1,1,85.000000
2023-08-28 18:18:06.791,0.6937991824225352,0.09267566062625585,-0.3097707351164395,-0.06599767885488705,0.2463955566187126,-0.1142335732756069,-0.1450155097674957,0.4729728557150311,0.7681599971577054,0.2767136478337891,0.1168177887283615,0.8328166103924829,0.7074165443354324,0.3820039171005182,-0.04472399288406136,0.7962887145134442,0.4063770034774661,-0.07634680556996354,-0.31246849665553,0.5142042649952865,901.7582417582418,795.7875457875458,788.1318681318681,1412.673992673993,933.1868131868132,-0.365845,0.043335,0.919678,1.846771,-3.349609,-0.785065,1,1,1,1,1,85.000000
2023-08-28 18:18:07.793,0.5970821416288197,0.08209199595681206,-0.3544560294467887,0.3357233392549631,0.2270572539275122,-0.02955939922751186,-0.1098356766318786,0.4246595838618503,0.7471110339339763,0.2946169365261638,0.09415402487443596,0.9465931717539182,0.6056677004572589,0.1717519759111933,0.1032641957274053,0.761040549535081,0.4177362937386898,-0.00329894839556494,-0.4148562991651,0.7440868859165234,894.1025641025641,801.025641025641,807.0695970695971,1370.3663003663,1105.641025641026,-0.361816,0.044922,0.918945,2.228088,-3.155212,-1.054230,1,1,1,1,1,85.000000
2023-08-28 18:18:08.291,,,,,,,,,,,,,,,,,,,,,,,,,,,,,,,,,,,,,,/muse/elements/blink
2023-08-28 18:18:08.791,0.3689148077319075,0.6353419277138999,-0.1540295078276965,0.3358143674471481,0.2121135488634316,0.3064783658636502,0.1071429257777456,0.5370431714059599,0.7558506123600309,0.7236118198269542,0.1171599872943625,0.6473512982555605,0.6374265040139437,0.317393120745891,0.1691565079667155,0.7236406236796274,0.4980347114051045,0.009690926171278078,-0.40862309608904,0.8597876882706997,876.3736263736264,807.4725274725275,803.040293040293,1229.340659340659,984.3589743589744,-0.363159,0.045105,0.915588,2.295380,-3.581390,-0.919647,1,1,1,1,1,85.000000
2023-08-28 18:18:09.779,,,,,,,,,,,,,,,,,,,,,,,,,,,,,,,,,,,,,,/muse/elements/blink
2023-08-28 18:18:09.791,0.2186238136503141,0.755530174432814,0.01120592139304796,0.4163212747138278,0.2163999363954279,0.4077380555583378,-0.03778929592867603,0.6084445920742603,0.6663198264475098,0.7236118198269542,0.1947841080361824,0.6046514457420811,0.6572208624496882,0.3713921022208241,0.04228158830511601,0.7015097402944003,0.5783238330359946,0.1399559180455308,-0.2526508245481627,0.9420427367334214,942.4542124542124,790.5494505494506,796.996336996337,1441.282051282051,912.6373626373627,-0.359802,0.037903,0.913147,1.876678,-3.357086,-0.485992,1,1,1,1,1,85.000000
2023-08-28 18:18:10.790,0.2186238136503141,1.080996313052891,-0.1184144208691821,0.4163212747138278,0.2163999363954279,0.6418316850340233,-0.02896884248031839,0.6084445920742603,0.6663198264475098,0.4583090885784628,0.2742594709437229,0.6046514457420811,0.6572208624496882,0.339488030871237,0.3600968073574587,0.7015097402944003,0.5783238330359946,0.08048617799620549,0.06711630766433718,0.9420427367334214,902.1611721611722,785.7142857142858,798.6080586080586,1405.018315018315,1127.399267399268,-0.361572,0.053711,0.911804,2.429962,-3.155212,1.742096,1,1,1,1,1,85.000000
2023-08-28 18:18:11.524,,,,,,,,,,,,,,,,,,,,,,,,,,,,,,,,,,,,,,/muse/elements/blink
2023-08-28 18:18:11.793,-0.1089096907497023,0.4838441655417945,-0.2943511109836885,0.4163212747138278,0.169031727020516,0.2758484241269564,-0.09135854460592943,0.6084445920742603,0.8027131531174478,0.2875675149816422,0.4838151902323444,0.6046514457420811,0.7579206727918057,0.3170322885132499,0.640894904381462,0.7015097402944003,0.5788077452691038,0.03029306901960594,0.3877833773600807,0.9420427367334214,834.4688644688645,769.1941391941392,803.4432234432235,1257.142857142857,922.7106227106227,-0.367371,0.052185,0.918030,1.891632,-2.609406,-0.104675,1,1,1,1,1,85.000000
2023-08-28 18:18:12.112,,,,,,,,,,,,,,,,,,,,,,,,,,,,,,,,,,,,,,/muse/elements/blink
2023-08-28 18:18:12.791,0.004948872837934906,0.7573895774440191,0.06780616597345684,0.4163212747138278,0.3112819162539334,0.6901383668764141,0.00505083478026145,0.6084445920742603,0.8464279882776699,0.7841187462390237,0.4412238764809149,0.6046514457420811,0.6682152580835349,0.201720171959677,0.4674585509359021,0.7015097402944003,0.5584901138368726,0.05055172916562728,0.212402554686776,0.9420427367334214,911.0256410256411,796.996336996337,791.3553113553114,1392.527472527473,936.8131868131868,-0.365295,0.052551,0.915405,1.727142,-3.297272,-0.171967,1,1,1,1,1,85.000000
2023-08-28 18:18:13.790,0.7254251865704858,0.708364004106759,0.1265155956813227,0.4163212747138278,0.8951336166944066,0.5598335933392989,-0.4142339268313576,0.6084445920742603,0.6418257333656452,0.7267430668511357,0.3799242540602397,0.6046514457420811,0.9082329063485284,0.1413003751354607,0.3658928989762091,0.7015097402944003,0.510923972620861,-0.01855992957201031,0.02617816743115048,0.9420427367334214,902.5641025641025,792.967032967033,792.5641025641025,1402.197802197802,971.8681318681319,-0.358093,0.055359,0.920288,2.011261,-3.566437,-0.381317,1,1,1,1,1,85.000000
2023-08-28 18:18:14.791,,,,,,,,,,,,,,,,,,,,,,,,,,,,,,,,,,,,,,/muse/elements/blink
2023-08-28 18:18:14.802,0.4570041161548522,0.3317687348439965,-0.1681662557525667,0.4182898890468183,0.9347141949323878,0.1534167962366787,0.127641166253945,1.087992110597642,0.9990307700442204,0.447477293520337,0.1661980919000691,0.8462866253096362,0.8937043401662577,0.2820098150167539,0.4786678361239307,1.016392582653989,0.5196890721228848,0.08505878617481362,0.2334542098830804,0.7849394404224628,919.8901098901099,799.8168498168499,791.7582417582418,1290.18315018315,843.3333333333334,-0.368713,0.052124,0.917114,0.695343,3.259888,-0.343933,1,1,1,1,1,85.000000
2023-08-28 18:18:15.408,,,,,,,,,,,,,,,,,,,,,,,,,,,,,,,,,,,,,,/muse/elements/blink
2023-08-28 18:18:15.793,0.5797211051904251,1.015684033671059,0.3076408369037575,0.3841918792868108,0.6529722934213239,0.7400891846122317,0.2203245712143012,0.7782435679946688,0.7665830931559654,0.7814414037331799,0.6598910584543413,0.8011869356909732,0.7976626858383088,0.3993123200714052,0.8749336769283913,1.045360503179257,0.4737893432004233,0.04200911001996325,0.6830511767819971,0.7368612349148235,901.3553113553114,790.5494505494506,806.6666666666667,1391.318681318681,876.7765567765568,-0.384827,0.046387,0.907166,1.495361,-3.813171,-1.173859,1,1,1,1,1,85.000000
2023-08-28 18:18:16.631,,,,,,,,,,,,,,,,,,,,,,,,,,,,,,,,,,,,,,/muse/elements/blink
2023-08-28 18:18:16.790,0.5797211051904251,0.5103320055070555,0.3224542879696393,0.3841918792868108,0.6529722934213239,0.4654448108423468,0.2383488770282203,0.7782435679946688,0.7665830931559654,0.4569532844666994,0.6214220401569911,0.8011869356909732,0.7976626858383088,0.3206796521518767,0.7786435608807991,1.045360503179257,0.4737893432004233,0.1306812886319896,0.4708967244984461,0.7368612349148235,890.4761904761905,791.7582417582418,798.6080586080586,1394.542124542125,1007.728937728938,-0.379333,0.045532,0.911560,1.689758,-3.760834,-0.605621,1,1,1,1,1,85.000000
2023-08-28 18:18:17.004,,,,,,,,,,,,,,,,,,,,,,,,,,,,,,,,,,,,,,/muse/elements/blink
2023-08-28 18:18:17.790,0.5797211051904251,1.13639566320469,0.05184359110925573,0.3841918792868108,0.6529722934213239,0.9167545144187527,0.2558584804525152,0.7782435679946688,0.7665830931559654,0.5705445908797513,0.4732839550832232,0.8011869356909732,0.7976626858383088,0.3749234252563132,0.5481653499798749,1.045360503179257,0.4737893432004233,0.07441569652119352,0.3166763093299972,0.7368612349148235,876.7765567765568,794.5787545787546,794.5787545787546,1344.981684981685,942.4542124542124,-0.377380,0.041931,0.916626,2.220612,-3.715973,-0.560760,1,2,1,1,2,85.000000
2023-08-28 18:18:18.216,,,,,,,,,,,,,,,,,,,,,,,,,,,,,,,,,,,,,,/muse/elements/blink
2023-08-28 18:18:18.798,0.5797211051904251,0.7966546527329683,-0.1047809432331371,0.3841918792868108,0.6529722934213239,0.5808678523353239,0.09467588105121733,0.7782435679946688,0.7665830931559654,0.4932877721223984,0.4496014088261863,0.8011869356909732,0.7976626858383088,0.4142610918471289,0.3135984549322816,1.045360503179257,0.4737893432004233,0.120522371611515,0.3127388280641483,0.7368612349148235,930.3663003663004,817.1428571428571,789.3406593406594,1349.81684981685,875.9706959706959,-0.384521,0.045776,0.915283,1.981354,-3.476715,-0.680389,1,2,1,1,2,85.000000
2023-08-28 18:18:18.830,,,,,,,,,,,,,,,,,,,,,,,,,,,,,,,,,,,,,,/muse/elements/blink
2023-08-28 18:18:19.790,0.5797211051904251,0.8030554286926459,-0.415305355671424,0.3841918792868108,0.6529722934213239,0.4121595244043516,-0.1470102884505671,0.7782435679946688,0.7665830931559654,0.6419706945174901,0.3826389070402427,0.8011869356909732,0.7976626858383088,0.4134718698617524,0.2500061620436714,1.045360503179257,0.4737893432004233,0.08860353038971992,-0.1399872770170334,0.7368612349148235,906.996336996337,799.0109890109891,804.6520146520147,1392.930402930403,873.956043956044,-0.378784,0.038574,0.913086,1.674805,-2.691650,-0.680389,1,2,1,1,2,85.000000
2023-08-28 18:18:20.034,,,,,,,,,,,,,,,,,,,,,,,,,,,,,,,,,,,,,,/muse/elements/blink
2023-08-28 18:18:20.273,,,,,,,,,,,,,,,,,,,,,,,,,,,,,,,,,,,,,,/muse/elements/jaw_clench
2023-08-28 18:18:20.790,0.5797211051904251,0.9134148741962536,-0.170941539425596,0.3841918792868108,0.6529722934213239,0.1300327237640502,-0.09815113464876678,0.7782435679946688,0.7665830931559654,0.4130228468614223,-0.2424579381288971,0.8011869356909732,0.7976626858383088,0.276489963325966,0.08955592792548164,1.045360503179257,0.4737893432004233,-0.005862193981541395,-0.4389626365504699,0.7368612349148235,850.5860805860806,765.5677655677656,787.3260073260074,1401.391941391941,1012.564102564103,-0.437622,-0.020386,0.884766,2.100983,-5.435638,1.136475,1,2,1,1,2,85.000000
2023-08-28 18:18:20.884,,,,,,,,,,,,,,,,,,,,,,,,,,,,,,,,,,,,,,/muse/elements/blink
2023-08-28 18:18:21.188,,,,,,,,,,,,,,,,,,,,,,,,,,,,,,,,,,,,,,/muse/elements/blink
2023-08-28 18:18:21.581,,,,,,,,,,,,,,,,,,,,,,,,,,,,,,,,,,,,,,/muse/elements/blink
2023-08-28 18:18:21.777,,,,,,,,,,,,,,,,,,,,,,,,,,,,,,,,,,,,,,/muse/elements/blink
2023-08-28 18:18:21.790,0.5797211051904251,0.8884105550731652,-0.1769716803252723,0.3841918792868108,0.6529722934213239,-0.05699481969619245,0.02277402501702465,0.7782435679946688,0.7665830931559654,0.06936114232117932,-0.4248810829638976,0.8011869356909732,0.7976626858383088,0.1976404258917129,-0.05209947086794616,1.045360503179257,0.4737893432004233,-0.09474181090936397,-0.3755916529822567,0.7368612349148235,881.2087912087912,792.1611721611722,787.7289377289378,1268.827838827839,894.908424908425,-0.413574,0.003296,0.902588,2.183228,-3.349609,-0.889740,1,2,1,1,2,85.000000
2023-08-28 18:18:22.192,,,,,,,,,,,,,,,,,,,,,,,,,,,,,,,,,,,,,,/muse/elements/blink
2023-08-28 18:18:22.791,0.5797211051904251,0.4428146283154127,0.08790393811738513,0.3841918792868108,0.6529722934213239,0.2939860663222745,-0.272393494497217,0.7782435679946688,0.7665830931559654,0.6142025343919109,0.2385616966873789,0.8011869356909732,0.7976626858383088,0.6939679912156504,0.8153782014558663,1.045360503179257,0.4737893432004233,0.844928687561077,0.8777155641102227,0.7368612349148235,938.4249084249085,785.3113553113553,799.4139194139194,1413.882783882784,1172.124542124542,-0.395081,0.008240,0.910889,2.736511,-5.338440,0.463562,1,2,1,1,2,85.000000
2023-08-28 18:18:22.825,,,,,,,,,,,,,,,,,,,,,,,,,,,,,,,,,,,,,,/muse/elements/blink
2023-08-28 18:18:23.329,,,,,,,,,,,,,,,,,,,,,,,,,,,,,,,,,,,,,,/muse/elements/blink
2023-08-28 18:18:23.800,0.5797211051904251,0.4107131275768406,-0.02523311249746825,0.3841918792868108,0.6529722934213239,0.1195561221143114,0.0618387192898758,0.7782435679946688,0.7665830931559654,0.4444643183590949,0.5941171118666557,0.8011869356909732,0.7976626858383088,0.6255018695834841,0.7720190715992913,1.045360503179257,0.4737893432004233,0.5645222953551078,0.4590656268808177,0.7368612349148235,853.4065934065934,802.6373626373627,790.952380952381,1058.498168498169,764.7619047619048,-0.372375,0.017761,0.918823,1.712189,-3.289795,-0.328979,1,2,1,1,2,85.000000
2023-08-28 18:18:24.312,,,,,,,,,,,,,,,,,,,,,,,,,,,,,,,,,,,,,,/muse/elements/blink
2023-08-28 18:18:24.790,0.5797211051904251,0.4219552921772546,0.03784430163094184,0.3841918792868108,0.6529722934213239,0.05818204483332091,0.06163862062107743,0.7782435679946688,0.7665830931559654,0.3962823528001662,0.7262497705824519,0.8011869356909732,0.7976626858383088,0.6081302109102663,0.765590929164381,1.045360503179257,0.4737893432004233,0.3821191060775732,0.4112654268661752,0.7368612349148235,893.2967032967033,798.6080586080586,809.4871794871796,1218.864468864469,759.92673992674,-0.385193,0.022095,0.911438,2.452393,-3.925323,-1.226196,1,2,1,1,2,85.000000
2023-08-28 18:18:25.790,0.5780699940972823,0.2643328094316452,-0.1207392739540167,0.4958270660559421,0.02189610962308183,-0.1240945648032813,0.08337843688638502,0.7187360970717764,0.7525226937055219,0.1080488438914058,0.5476626525086228,0.9303034602629762,0.9213425593128405,0.5647856270108352,0.6398188382932006,0.9285991271262585,0.4915308509638472,0.4099728314926549,0.291836927255216,0.9384391366684198,892.0879120879121,796.1904761904763,794.5787545787546,1340.952380952381,954.9450549450549,-0.377625,0.012878,0.916260,2.033691,-3.798218,-0.613098,1,1,1,1,1,85.000000
2023-08-28 18:18:26.794,0.238307679758288,0.4842138129745978,0.009920643602447796,0.5013073761065787,0.5060421675385162,0.1253039529662496,-0.08199606540179656,0.5358552801875308,0.9013756555857998,0.4193761496309492,0.3476638638030997,1.192940283077971,0.9197778104774449,0.4952702720902535,0.653770226516822,1.01510455226924,0.6157527826796813,0.1847375632769719,0.3459934984199325,0.7698511944767296,834.4688644688645,799.8168498168499,789.3406593406594,964.6153846153846,728.0952380952381,-0.382568,0.014832,0.913208,1.966400,-3.282318,-0.500946,1,1,1,1,1,85.000000
2023-08-28 18:18:27.355,,,,,,,,,,,,,,,,,,,,,,,,,,,,,,,,,,,,,,/muse/elements/blink
2023-08-28 18:18:27.683,,,,,,,,,,,,,,,,,,,,,,,,,,,,,,,,,,,,,,/muse/elements/blink
2023-08-28 18:18:27.790,0.2668711337125091,0.7825068782464438,-0.3270075261865239,0.6449848016904624,0.6805777585625905,0.6234981625474819,-0.1725332389638116,0.689899656103155,0.8226101681937094,0.5486214640002421,0.4052436746037092,1.106343394670363,0.8325293655647429,0.4180323746727521,0.5398121349615403,1.050233529779514,0.6200723264821011,0.321081033535053,0.4129450778200123,0.7548610566011599,871.941391941392,801.8315018315019,790.952380952381,1179.377289377289,838.0952380952381,-0.371948,0.014954,0.912598,2.130890,-3.005676,-0.717773,1,1,1,1,1,85.000000
2023-08-28 18:18:28.790,0.00505359982682602,0.8658868561849409,-0.1984284702462661,0.356921840034878,0.5943762249801172,0.6965367482097011,-0.06897194129958138,0.5174092572001826,0.5783201030325247,0.543363666617581,0.4101605702322339,0.9811332782259139,0.7510113223121998,0.4737505120793958,0.5688082258931388,0.9950215782578571,0.5481037459617226,0.3526764568304283,0.3597494335090423,0.8071452909305344,900.952380952381,784.9084249084249,784.1025641025641,1331.684981684982,947.6923076923077,-0.376404,0.021667,0.917847,1.854248,-3.469238,-1.031799,1,1,1,1,1,85.000000
2023-08-28 18:18:29.799,0.716549112048836,0.3938652006105491,-0.1964951542524326,0.3951756234530569,0.8871473093691807,0.2009827212333176,-0.007069033972325934,0.6242053026525147,0.834278282308869,0.009126537018070214,0.4254627968004729,0.671624443650025,0.7456012967141238,0.6372199453943999,0.5668601349219788,0.9185460081583029,0.6206642629699685,0.2345321059385047,0.2200263349354615,0.9601738970300703,844.5421245421246,776.0439560439561,783.2967032967033,949.7069597069598,747.8388278388279,-0.375183,0.016235,0.917358,1.637421,-2.923431,-0.740204,1,1,1,1,1,85.000000
2023-08-28 18:18:30.116,,,,,,,,,,,,,,,,,,,,,,,,,,,,,,,,,,,,,,/muse/elements/blink
2023-08-28 18:18:30.639,,,,,,,,,,,,,,,,,,,,,,,,,,,,,,,,,,,,,,/muse/elements/blink
2023-08-28 18:18:30.790,0.5057286810582402,0.6561896508748786,-0.4142639355851698,0.3606636777915829,0.6913118673317453,0.2520776847545887,0.05033491525350896,0.5819110384248021,0.5864923882893693,0.4767726126353549,0.4550936232693296,0.671624443650025,0.7232937334313913,0.6100214816961436,0.5464226560689878,0.9390048395951771,0.6587555257196623,0.3558520758155664,0.0927124897932563,0.9691463136125188,891.2820512820513,787.7289377289378,792.5641025641025,1184.615384615385,806.6666666666667,-0.380676,0.015320,0.911377,1.749573,-3.551483,-1.001892,1,1,1,1,1,85.000000
2023-08-28 18:18:30.923,,,,,,,,,,,,,,,,,,,,,,,,,,,,,,,,,,,,,,/muse/elements/blink
2023-08-28 18:18:31.342,,,,,,,,,,,,,,,,,,,,,,,,,,,,,,,,,,,,,,/muse/elements/blink
2023-08-28 18:18:31.541,,,,,,,,,,,,,,,,,,,,,,,,,,,,,,,,,,,,,,/muse/elements/blink
2023-08-28 18:18:31.720,,,,,,,,,,,,,,,,,,,,,,,,,,,,,,,,,,,,,,/muse/elements/blink
2023-08-28 18:18:31.790,0.5057286810582402,1.124312219334493,-0.2900836410906148,0.3349407102211203,0.6913118673317453,0.7203736948114011,0.154016673187619,0.5249058884117935,0.5864923882893693,0.7721908088597635,0.3009006809855521,0.671624443650025,0.7232937334313913,0.5242922641735341,0.4572339682083079,0.9761973803057121,0.6587555257196623,0.3650973325208642,0.2231506024075429,0.9673476287773929,911.0256410256411,816.3369963369963,799.4139194139194,1354.249084249084,913.8461538461539,-0.372803,0.012634,0.915649,2.347717,-2.631836,-0.433655,1,1,1,1,1,85.000000
2023-08-28 18:18:32.790,0.5057286810582402,0.869176407081537,-0.3155956914021147,0.3349407102211203,0.6913118673317453,0.2491412001930611,0.01183698782319611,0.5249058884117935,0.5864923882893693,0.568010326173636,0.1866711642135647,0.671624443650025,0.7232937334313913,0.5717002369725697,0.2568934891514126,0.9761973803057121,0.6587555257196623,0.3250477666895473,0.04897409522613794,0.9673476287773929,880,788.9377289377289,796.996336996337,1362.307692307692,911.0256410256411,-0.378723,0.018677,0.916016,1.951447,-2.332764,-0.171967,1,2,1,1,2,85.000000
2023-08-28 18:18:33.079,,,,,,,,,,,,,,,,,,,,,,,,,,,,,,,,,,,,,,/muse/elements/blink
2023-08-28 18:18:33.473,,,,,,,,,,,,,,,,,,,,,,,,,,,,,,,,,,,,,,/muse/elements/blink
2023-08-28 18:18:33.670,,,,,,,,,,,,,,,,,,,,,,,,,,,,,,,,,,,,,,/muse/elements/blink
2023-08-28 18:18:33.789,1.002285918162158,0.6458073167430046,0.07046396975534543,0.3349407102211203,0.6621961177815826,0.1126622057418034,-0.1510854487575593,0.5249058884117935,1.143570948323334,0.481434773053373,0.12498291853961,0.671624443650025,0.9177157801947857,0.4657705326994748,0.3432917973931894,0.9761973803057121,0.3797948867166604,0.2975139688779839,-0.2944197285626873,0.9673476287773929,761.1355311355312,771.2087912087912,799.8168498168499,1043.186813186813,949.3040293040293,-0.393921,0.009338,0.912170,2.497253,-4.351501,-1.218719,1,1,1,1,1,85.000000
2023-08-28 18:18:34.041,,,,,,,,,,,,,,,,,,,,,,,,,,,,,,,,,,,,,,/muse/elements/blink
2023-08-28 18:18:34.303,,,,,,,,,,,,,,,,,,,,,,,,,,,,,,,,,,,,,,/muse/elements/blink
2023-08-28 18:18:34.790,1.152296625264597,0.898677642575567,-0.005663543328200013,0.3349407102211203,0.7869481398430784,0.1489946084526651,-0.01823892756704723,0.5249058884117935,1.095126744818735,0.3598755213875168,0.5709663740485541,0.671624443650025,0.9308921305251031,0.4441418219530397,0.340392255749097,0.9761973803057121,0.4060539577887305,0.3274661616641757,-0.1220565505037539,0.9673476287773929,897.7289377289378,792.5641025641025,779.6703296703297,1289.377289377289,863.4798534798535,-0.387390,0.003967,0.915222,1.622467,-2.003784,-1.614990,1,1,1,1,1,85.000000
2023-08-28 18:18:35.799,1.152296625264597,-0.03501087520682016,-0.01010654662966395,0.3349407102211203,0.7869481398430784,0.06688065121554422,0.1477905849365784,0.5249058884117935,1.095126744818735,0.3944892600955144,0.5317019547387966,0.671624443650025,0.9308921305251031,0.5774539557559975,0.367716743703806,0.9761973803057121,0.4060539577887305,0.5151991800271176,0.07141573274790952,0.9673476287773929,829.2307692307693,805.0549450549451,807.0695970695971,945.2747252747253,716.8131868131868,-0.385925,0.006042,0.917297,2.190704,-4.044952,-0.695343,1,1,1,1,1,85.000000
2023-08-28 18:18:36.292,,,,,,,,,,,,,,,,,,,,,,,,,,,,,,,,,,,,,,/muse/elements/blink
2023-08-28 18:18:36.790,0.2211007480863802,0.7478104977665713,-0.2908053540344703,0.3349407102211203,0.4936562577400199,0.4899494341106822,-0.005397942052990911,0.5249058884117935,0.950215961100862,0.5740224223674519,0.1057657102809509,0.671624443650025,0.8035654499945479,0.667647696073481,0.2861394088063788,0.9761973803057121,0.5930864317052192,0.3659671916456457,0.03709889418567298,0.9673476287773929,878.7912087912089,793.3699633699634,793.3699633699634,1164.468864468864,719.6336996336996,-0.377258,0.008179,0.912170,2.332764,-4.344025,-0.560760,1,1,1,1,1,85.000000
2023-08-28 18:18:36.817,,,,,,,,,,,,,,,,,,,,,,,,,,,,,,,,,,,,,,/muse/elements/blink
2023-08-28 18:18:37.629,,,,,,,,,,,,,,,,,,,,,,,,,,,,,,,,,,,,,,/muse/elements/blink
2023-08-28 18:18:37.793,0.5184099457866486,0.7960483138967096,-0.5219040117546526,0.3349407102211203,0.3433426913258528,0.5730989981767959,-0.2239504502304892,0.5249058884117935,0.6883648710876062,0.5645196544342692,0.09030255021946629,0.671624443650025,0.7557665845972062,0.4924893507704367,0.1742855303591233,0.9761973803057121,0.546042063854501,0.2343803983110765,-0.1254602236326508,0.9673476287773929,821.978021978022,781.2820512820513,796.996336996337,1218.864468864469,994.4322344322345,-0.383789,0.006653,0.910767,1.869202,-3.790741,-0.643005,1,1,1,1,1,85.000000
2023-08-28 18:18:37.958,,,,,,,,,,,,,,,,,,,,,,,,,,,,,,,,,,,,,,/muse/elements/blink
2023-08-28 18:18:38.333,,,,,,,,,,,,,,,,,,,,,,,,,,,,,,,,,,,,,,/muse/elements/blink
2023-08-28 18:18:38.789,0.5184099457866486,0.9992576817397004,0.1317852768006546,0.3349407102211203,0.3433426913258528,0.542170158451445,0.1951454880651143,0.5249058884117935,0.6883648710876062,0.4750603043773829,0.4808851552551092,0.671624443650025,0.7557665845972062,0.4358859447108827,0.175012949590822,0.9761973803057121,0.546042063854501,0.2996961589664457,-0.2060042714633104,0.9673476287773929,906.1904761904763,803.040293040293,797.3992673992674,1362.307692307692,889.6703296703297,-0.383118,0.005859,0.908264,1.570129,-3.454285,-0.179443,1,1,1,1,1,80.000000
2023-08-28 18:18:38.836,,,,,,,,,,,,,,,,,,,,,,,,,,,,,,,,,,,,,,/muse/elements/blink
2023-08-28 18:18:39.446,,,,,,,,,,,,,,,,,,,,,,,,,,,,,,,,,,,,,,/muse/elements/blink
2023-08-28 18:18:39.772,,,,,,,,,,,,,,,,,,,,,,,,,,,,,,,,,,,,,,/muse/elements/blink
2023-08-28 18:18:39.790,0.3994523388151635,0.8304129925020527,0.05308233310805101,0.3349407102211203,0.422057997381431,0.3710060441657811,0.120415260095716,0.5249058884117935,0.6339838911448087,0.2822458022790947,0.4798318864220057,0.671624443650025,0.7266556442197598,0.5208251717508899,0.1190817014962332,0.9761973803057121,0.6404169896783037,0.1726341997360506,-0.1999359518024504,0.9673476287773929,847.7655677655678,806.6666666666667,791.7582417582418,1121.758241758242,755.8974358974359,-0.377686,0.006348,0.914124,1.704712,-3.491669,-0.710297,1,2,1,1,2,80.000000
2023-08-28 18:18:40.582,,,,,,,,,,,,,,,,,,,,,,,,,,,,,,,,,,,,,,/muse/elements/blink
2023-08-28 18:18:40.790,0.1844084738803748,-0.1225572478295817,-0.2285525800126799,0.009247235525842419,0.3903938501676022,-0.02532270144998053,-0.09344095854840163,0.3981465918431905,0.7304417300032474,0.4046242864299308,0.123393261702104,0.7708832135308725,0.7340123666747647,0.4654826310325919,0.05029799620608255,0.8735488553714057,0.5509366897081798,0.2009144058743967,-0.2798031499419513,0.8347449598056731,889.2673992673992,784.9084249084249,799.4139194139194,1282.527472527473,1012.161172161172,-0.373535,0.012390,0.916199,2.168274,-3.319702,-0.657959,1,1,1,1,1,80.000000
2023-08-28 18:18:41.282,,,,,,,,,,,,,,,,,,,,,,,,,,,,,,,,,,,,,,/muse/elements/blink
2023-08-28 18:18:41.794,0.05834530044696868,-0.1050183226365749,-0.2197582057412264,0.2004292687751349,0.4697219145094801,-0.06820611174430118,-0.2720759766970461,0.3873826532551123,0.6843149350638241,0.2769919625780481,-0.001748288419957923,0.6495161396903438,0.6720358598161918,0.4583528193677331,0.1776987998701975,0.7942428375390121,0.429989768793524,0.2530832591227524,-0.2248437298937652,0.7766353817062897,703.919413919414,755.0915750915751,790.5494505494506,782.893772893773,594.3223443223443,-0.377991,0.009277,0.915710,1.973877,-4.575806,-0.657959,1,1,1,1,1,80.000000
2023-08-28 18:18:41.982,,,,,,,,,,,,,,,,,,,,,,,,,,,,,,,,,,,,,,/muse/elements/blink
2023-08-28 18:18:42.398,,,,,,,,,,,,,,,,,,,,,,,,,,,,,,,,,,,,,,/muse/elements/blink
2023-08-28 18:18:42.790,0.3213157647604346,1.091169567930217,0.1539306012060648,0.3393771891546136,0.4321617459385128,0.6379486489520962,-0.09094394983982383,0.4770445108933141,0.6550403629872567,0.2283227625192263,-0.02168502845419828,0.4948868177351658,0.7251415711486219,0.4108619691374364,0.1759290113810832,0.6708436884711458,0.3770123939212813,0.2674949688727934,-0.310452210964471,0.6627995908603641,874.7619047619048,789.7435897435897,780.8791208791209,1338.937728937729,997.2527472527473,-0.376953,0.008484,0.913208,1.517792,-2.302856,-0.912170,1,1,1,1,1,80.000000
2023-08-28 18:18:42.836,,,,,,,,,,,,,,,,,,,,,,,,,,,,,,,,,,,,,,/muse/elements/blink
2023-08-28 18:18:43.210,,,,,,,,,,,,,,,,,,,,,,,,,,,,,,,,,,,,,,/muse/elements/blink
2023-08-28 18:18:43.792,0.4261384307199642,1.297089482615056,0.28587524351993,0.3393771891546136,0.4756282113863086,0.7749671173441502,0.09856823474140905,0.4770445108933141,0.639715145902199,0.3331847562019675,0.1655493304203961,0.4948868177351658,0.7515207444520385,0.4368047063559221,0.2383997150629327,0.6708436884711458,0.4201747365847172,0.1833978167429113,-0.2581228399525364,0.6627995908603641,886.4468864468864,810.6959706959707,799.0109890109891,1243.846153846154,838.4981684981685,-0.378845,0.008606,0.914734,1.951447,-3.274841,-0.859833,1,1,1,1,1,80.000000
2023-08-28 18:18:44.246,,,,,,,,,,,,,,,,,,,,,,,,,,,,,,,,,,,,,,/muse/elements/blink
2023-08-28 18:18:44.425,,,,,,,,,,,,,,,,,,,,,,,,,,,,,,,,,,,,,,/muse/elements/blink
2023-08-28 18:18:44.790,0.4261384307199642,0.746230748719811,-0.2089185914101612,0.3393771891546136,0.4756282113863086,0.3769520043379275,0.1296831714409803,0.4770445108933141,0.639715145902199,0.3674853665825906,0.177595834538593,0.4948868177351658,0.7515207444520385,0.4509123449722253,0.2597197763106824,0.6708436884711458,0.4201747365847172,0.2137426915171424,-0.2433801717794918,0.6627995908603641,900.1465201465202,805.0549450549451,800.6227106227107,1356.263736263736,956.5567765567766,-0.379578,0.006409,0.917053,1.914062,-3.244934,-0.762634,1,2,1,1,2,80.000000
2023-08-28 18:18:44.927,,,,,,,,,,,,,,,,,,,,,,,,,,,,,,,,,,,,,,/muse/elements/blink
2023-08-28 18:18:45.449,,,,,,,,,,,,,,,,,,,,,,,,,,,,,,,,,,,,,,/muse/elements/blink
2023-08-28 18:18:45.790,0.4261384307199642,0.5356585091821147,-0.1575195001219633,0.3393771891546136,0.4756282113863086,0.3906204411913888,-0.255939189407781,0.4770445108933141,0.639715145902199,0.4747120694069679,0.101109812614555,0.4948868177351658,0.7515207444520385,0.4291688658961528,-0.03401660457816061,0.6708436884711458,0.4201747365847172,0.2461490441084436,-0.144162796170152,0.6627995908603641,835.6776556776557,804.2490842490843,786.9230769230769,1016.996336996337,800.6227106227107,-0.376648,0.007812,0.914490,2.018738,-3.813171,0.269165,1,2,1,1,2,80.000000
2023-08-28 18:18:46.790,0.4261384307199642,0.5121133807021057,-0.1708161829861532,0.3393771891546136,0.4756282113863086,0.3892908076592254,-0.1604346611178811,0.4770445108933141,0.639715145902199,0.4259193609339075,0.1630276817789388,0.4948868177351658,0.7515207444520385,0.6017954162551351,0.155585566331052,0.6708436884711458,0.4201747365847172,0.262042121963065,-0.2062412269769143,0.6627995908603641,830.4395604395604,769.1941391941392,781.2820512820513,1147.545787545788,951.3186813186813,-0.387085,0.005310,0.910034,1.637421,-3.798218,-1.114044,1,2,1,1,2,80.000000
2023-08-28 18:18:46.845,,,,,,,,,,,,,,,,,,,,,,,,,,,,,,,,,,,,,,/muse/elements/blink
2023-08-28 18:18:47.084,,,,,,,,,,,,,,,,,,,,,,,,,,,,,,,,,,,,,,/muse/elements/blink
2023-08-28 18:18:47.281,,,,,,,,,,,,,,,,,,,,,,,,,,,,,,,,,,,,,,/muse/elements/blink
2023-08-28 18:18:47.543,,,,,,,,,,,,,,,,,,,,,,,,,,,,,,,,,,,,,,/muse/elements/blink
2023-08-28 18:18:47.796,0.4261384307199642,0.8613273024110444,-0.1151425574952256,0.3393771891546136,0.4756282113863086,0.757323302041259,-0.04574887574883674,0.4770445108933141,0.639715145902199,0.8915557013578291,0.2909968667781433,0.4948868177351658,0.7515207444520385,0.7029593282902077,0.2165690108146164,0.6708436884711458,0.4201747365847172,0.2861268346541262,-0.1195554551651173,0.6627995908603641,803.040293040293,799.4139194139194,791.7582417582418,769.1941391941392,445.6410256410256,-0.380920,0.016113,0.919800,1.876678,-3.656158,-0.792542,1,2,1,1,2,80.000000
2023-08-28 18:18:48.681,,,,,,,,,,,,,,,,,,,,,,,,,,,,,,,,,,,,,,/muse/elements/blink
2023-08-28 18:18:48.791,0.4261384307199642,1.087434201919371,0.1665216243299302,0.3393771891546136,0.4756282113863086,0.8286427077464714,0.003786078688070049,0.4770445108933141,0.639715145902199,0.8881449485384784,0.3228055879141259,0.4948868177351658,0.7515207444520385,0.7028113347491548,0.166734942052524,0.6708436884711458,0.4201747365847172,0.3475152029434595,-0.1395749228872349,0.6627995908603641,776.4468864468864,779.6703296703297,807.4725274725275,900.5494505494506,738.974358974359,-0.510498,0.004456,0.814880,5.540314,28.247375,7.828217,1,2,1,1,2,75.000000
2023-08-28 18:18:49.011,,,,,,,,,,,,,,,,,,,,,,,,,,,,,,,,,,,,,,/muse/elements/blink
2023-08-28 18:18:49.319,,,,,,,,,,,,,,,,,,,,,,,,,,,,,,,,,,,,,,/muse/elements/blink
2023-08-28 18:18:49.715,,,,,,,,,,,,,,,,,,,,,,,,,,,,,,,,,,,,,,/muse/elements/blink
2023-08-28 18:18:49.790,0.4261384307199642,0.542591324758333,0.4598103969916076,0.3393771891546136,0.4756282113863086,0.2304547001837569,0.1262472420738803,0.4770445108933141,0.639715145902199,-0.2242958965849882,0.6438703900042226,0.4948868177351658,0.7515207444520385,0.7181459484993601,-0.1358596348606314,0.6708436884711458,0.4201747365847172,0.3371802756155721,-0.2581785091229921,0.6627995908603641,931.5750915750916,811.5018315018315,786.9230769230769,988.7912087912089,895.3113553113553,-0.345764,0.042175,0.888245,-1.375732,-59.575195,-14.146118,1,2,1,1,2,75.000000
2023-08-28 18:18:49.911,,,,,,,,,,,,,,,,,,,,,,,,,,,,,,,,,,,,,,/muse/elements/jaw_clench
2023-08-28 18:18:50.239,,,,,,,,,,,,,,,,,,,,,,,,,,,,,,,,,,,,,,/muse/elements/blink
2023-08-28 18:18:50.503,,,,,,,,,,,,,,,,,,,,,,,,,,,,,,,,,,,,,,/muse/elements/jaw_clench
2023-08-28 18:18:50.797,0.4261384307199642,1.16592682294707,0.04115021650902272,0.3393771891546136,0.4756282113863086,0.4730919519399627,0.08447510968424929,0.4770445108933141,0.639715145902199,0.1975090917277846,0.5896081185976684,0.4948868177351658,0.7515207444520385,0.1387645636160512,-0.074825247430004,0.6708436884711458,0.4201747365847172,-0.04249989290022796,-0.1541051460470255,0.6627995908603641,828.021978021978,792.967032967033,793.7728937728938,640.6593406593407,582.6373626373627,-0.268738,-0.032532,0.947754,-0.485992,2.250519,5.667419,1,2,1,1,2,75.000000
2023-08-28 18:18:51.440,,,,,,,,,,,,,,,,,,,,,,,,,,,,,,,,,,,,,,/muse/elements/blink
2023-08-28 18:18:51.637,,,,,,,,,,,,,,,,,,,,,,,,,,,,,,,,,,,,,,/muse/elements/blink
2023-08-28 18:18:51.790,0.4261384307199642,0.9363134482738634,0.1279102880489061,0.3393771891546136,0.4756282113863086,0.4491201073333026,-0.1270370792573446,0.4770445108933141,0.639715145902199,0.4162644052517403,0.3246710508864212,0.4948868177351658,0.7515207444520385,0.4185258891757748,0.3282663081900795,0.6708436884711458,0.4201747365847172,0.2622213064435852,0.01034800010495951,0.6627995908603641,856.2271062271062,809.4871794871796,788.5347985347986,886.0439560439561,680.5494505494506,-0.381836,0.044800,0.917786,4.590759,-7.222595,1.816864,1,2,1,1,2,75.000000
2023-08-28 18:18:51.835,,,,,,,,,,,,,,,,,,,,,,,,,,,,,,,,,,,,,,/muse/elements/blink
2023-08-28 18:18:52.342,,,,,,,,,,,,,,,,,,,,,,,,,,,,,,,,,,,,,,/muse/elements/blink
2023-08-28 18:18:52.790,0.4261384307199642,0.5134377987505737,0.2958646374809003,0.3393771891546136,0.4756282113863086,0.5249704288846614,0.07730795289686403,0.4770445108933141,0.639715145902199,0.4162529179034494,0.415316654058643,0.4948868177351658,0.7515207444520385,0.5483643670051976,0.5468706802148137,0.6708436884711458,0.4201747365847172,0.3837569685443706,0.2226896276248044,0.6627995908603641,848.974358974359,796.996336996337,802.2344322344322,1120.14652014652,724.8717948717949,-0.395142,0.028259,0.905212,2.033691,-1.929016,-1.375732,1,2,1,1,2,75.000000
2023-08-28 18:18:53.281,,,,,,,,,,,,,,,,,,,,,,,,,,,,,,,,,,,,,,/muse/elements/blink
2023-08-28 18:18:53.789,0.6699595692450466,0.3718026163089537,-0.0173090083550016,0.3393771891546136,0.9456974706946102,0.3084015139185772,0.1429915818538392,0.4770445108933141,0.9220897032476293,0.4691578287220819,0.3981644096001311,0.4948868177351658,1.04970317740367,0.5229000646066564,0.3282961532243778,0.6708436884711458,0.6587528664126485,0.3512651462328304,-0.07478928202739218,0.6627995908603641,899.3406593406594,796.1904761904763,803.040293040293,1301.062271062271,940.0366300366301,-0.413696,0.028625,0.898499,2.160797,-4.015045,0.224304,1,1,1,1,1,75.000000
2023-08-28 18:18:54.178,,,,,,,,,,,,,,,,,,,,,,,,,,,,,,,,,,,,,,/muse/elements/blink
2023-08-28 18:18:54.685,,,,,,,,,,,,,,,,,,,,,,,,,,,,,,,,,,,,,,/muse/elements/blink
2023-08-28 18:18:54.789,0.8320489154191005,0.7948660934255044,-0.09699064076986263,0.3393771891546136,1.064996774742762,0.5972600290682651,-0.09534205357732038,0.4770445108933141,0.9185044462655303,0.6445139104416071,0.3128187773405159,0.4948868177351658,1.157803335650053,0.6680642371753276,0.3270945187516059,0.6708436884711458,0.6509124211182811,0.4017203491870988,-0.08075145601914509,0.6627995908603641,874.3589743589744,801.025641025641,801.025641025641,938.8278388278388,687.3992673992674,-0.397888,0.039673,0.905457,1.540222,-2.138367,-0.598145,1,1,1,1,1,75.000000
2023-08-28 18:18:55.798,0.8320489154191005,0.9953221299167984,-0.1385388594221286,0.3393771891546136,1.064996774742762,0.8500579715158125,-0.180810653720421,0.4770445108933141,0.9185044462655303,0.6421700924278229,0.1352339920787408,0.4948868177351658,1.157803335650053,0.7227943609092576,0.165297494318438,0.6708436884711458,0.6509124211182811,0.4216261266062344,-0.1615654882042423,0.6627995908603641,886.8498168498169,797.3992673992674,791.7582417582418,1120.549450549451,954.5421245421246,-0.408020,0.044861,0.904419,2.153320,-3.140259,-0.082245,1,1,1,1,1,75.000000
2023-08-28 18:18:56.789,0.8320489154191005,0.5495169495129966,-0.2330760090902844,0.3393771891546136,1.064996774742762,0.1755286582199225,-0.1055674481185599,0.4770445108933141,0.9185044462655303,0.5831618294274608,0.2058775725691663,0.4948868177351658,1.157803335650053,0.6324253328430588,0.09285855045173295,0.6708436884711458,0.6509124211182811,0.1629501157415891,-0.1004925733588281,0.6627995908603641,899.3406593406594,791.7582417582418,793.7728937728938,1270.03663003663,853.4065934065934,-0.396912,0.039551,0.906006,2.923431,-3.745880,-0.089722,1,2,1,1,2,75.000000
2023-08-28 18:18:56.843,,,,,,,,,,,,,,,,,,,,,,,,,,,,,,,,,,,,,,/muse/elements/blink
2023-08-28 18:18:57.651,,,,,,,,,,,,,,,,,,,,,,,,,,,,,,,,,,,,,,/muse/elements/blink
2023-08-28 18:18:57.797,0.8261932386404884,0.09376295013382972,-0.06822707950162506,0.3393771891546136,0.5350291712913285,0.01384095959197909,-0.04440319764069937,0.4770445108933141,0.9723789610843555,0.433725309688802,0.289649340623399,0.4948868177351658,0.7207331423129972,0.6279621752544058,0.05889692415852248,0.6708436884711458,0.4134629701422513,0.1966447263241759,-0.06537379591266641,0.6627995908603641,819.1575091575091,791.7582417582418,794.981684981685,901.7582417582418,672.4908424908425,-0.383362,0.060486,0.913086,1.958923,-4.246826,0.134583,1,1,1,1,1,75.000000
2023-08-28 18:18:58.422,,,,,,,,,,,,,,,,,,,,,,,,,,,,,,,,,,,,,,/muse/elements/blink
2023-08-28 18:18:58.789,0.7731043879453425,-0.03557578628522975,-0.04932221941419501,0.7417450182201821,0.6479864144107792,-0.1374572686327617,-0.1325267687093337,0.7748408629603747,0.9692737797363337,0.3968737749851928,0.3756248808557658,1.002535745830438,0.8593368762237941,0.6982466362457572,0.2307572783622093,1.206601607893293,0.5553191001968339,0.4331014750241837,-0.2411780650593315,0.9065448696238141,860.6593406593407,784.1025641025641,794.981684981685,1121.758241758242,827.6190476190476,-0.379883,0.056152,0.912598,1.532745,-0.687866,-1.091614,1,1,1,1,1,85.000000
2023-08-28 18:18:59.040,,,,,,,,,,,,,,,,,,,,,,,,,,,,,,,,,,,,,,/muse/elements/blink
2023-08-28 18:18:59.796,0.1362636752426373,0.1034651431450604,0.02941068536905808,0.7435033492640718,0.297517141938092,-0.2178060482114966,-0.2706748866902045,0.7859073819651663,0.8719455971394041,0.2112471434539464,0.3375099199905178,0.9335765051316441,0.8642278116600927,0.5210617344647442,0.2326592901224812,1.22155402776712,0.6279891164290445,0.3447959394327516,-0.2449177507342891,0.9041117150135036,794.981684981685,792.5641025641025,797.8021978021978,720.8424908424909,676.5201465201466,-0.384155,0.055664,0.912354,2.056122,-3.551483,-0.478516,1,1,1,1,1,85.000000
2023-08-28 18:19:00.774,,,,,,,,,,,,,,,,,,,,,,,,,,,,,,,,,,,,,,/muse/elements/blink
2023-08-28 18:19:00.789,0.2730372715041572,0.3911882445817264,0.1309023123182268,0.7851250915771094,0.5724834504892985,0.1398138590474898,-0.06600881681825742,0.7757645930781906,0.8494302893432384,0.4146272483873472,0.1350743664966491,0.8376779255044456,0.819353477415389,0.6526416179273696,0.1471860291560515,1.234547887690506,0.5842234368757918,0.2476335275977264,-0.2209933778449756,0.8672860591390464,826.8131868131868,794.5787545787546,801.025641025641,935.6043956043957,701.5018315018315,-0.391663,0.057678,0.907288,1.891632,-3.573914,0.396271,1,1,1,1,1,85.000000
2023-08-28 18:19:01.195,,,,,,,,,,,,,,,,,,,,,,,,,,,,,,,,,,,,,,/muse/elements/blink
2023-08-28 18:19:01.391,,,,,,,,,,,,,,,,,,,,,,,,,,,,,,,,,,,,,,/muse/elements/blink
2023-08-28 18:19:01.789,0.4314167173630299,0.4059878462803272,-0.007203886236502482,0.7851250915771094,0.6897307967713664,0.3426504888885099,-0.08750214149926254,0.7757645930781906,0.6240488739194126,0.5034283888962569,0.2621402794390629,0.8376779255044456,0.7577480374280717,0.5852662307022751,0.136020668651917,1.234547887690506,0.6148359516820253,0.17083794080725,-0.1460674245250584,0.8672860591390464,734.9450549450549,731.7216117216118,810.6959706959707,1056.886446886447,811.9047619047619,-0.381897,0.056458,0.899719,3.132782,1.884155,1.637421,1,1,1,1,1,85.000000
2023-08-28 18:19:01.808,,,,,,,,,,,,,,,,,,,,,,,,,,,,,,,,,,,,,,/muse/elements/blink
2023-08-28 18:19:02.426,,,,,,,,,,,,,,,,,,,,,,,,,,,,,,,,,,,,,,/muse/elements/blink
2023-08-28 18:19:02.714,,,,,,,,,,,,,,,,,,,,,,,,,,,,,,,,,,,,,,/muse/elements/blink
2023-08-28 18:19:02.793,0.4314167173630299,0.3804052998745273,0.8456196711507113,0.7851250915771094,0.6897307967713664,0.1523559367508302,0.2135734710739778,0.7757645930781906,0.6240488739194126,0.3595460158659568,0.4310484638053926,0.8376779255044456,0.7577480374280717,0.4676209514753976,-0.02311405328821918,1.234547887690506,0.6148359516820253,0.2280621540083321,-0.1021794101325213,0.8672860591390464,978.3150183150184,791.3553113553114,798.2051282051282,1398.571428571429,1097.985347985348,-0.430603,0.105469,0.880615,-10.303040,-16.972351,-13.331146,1,1,1,1,1,85.000000
2023-08-28 18:19:02.934,,,,,,,,,,,,,,,,,,,,,,,,,,,,,,,,,,,,,,/muse/elements/blink
2023-08-28 18:19:03.637,,,,,,,,,,,,,,,,,,,,,,,,,,,,,,,,,,,,,,/muse/elements/blink
2023-08-28 18:19:03.789,0.4314167173630299,0.2114517019616215,0.7807447456522324,0.7851250915771094,0.6897307967713664,0.1695705984468306,0.214634023137843,0.7757645930781906,0.6240488739194126,0.3843767718351707,0.3664242821858945,0.8376779255044456,0.7577480374280717,0.6483598621506056,-0.1555239606568915,1.234547887690506,0.6148359516820253,0.260204254383359,-0.1739734252668588,0.8672860591390464,849.3772893772895,803.4432234432235,787.3260073260074,1027.472527472527,1046.410256410256,-0.373718,0.003662,0.911804,2.646790,-2.444916,0.852356,1,2,1,1,2,85.000000
2023-08-28 18:19:03.920,,,,,,,,,,,,,,,,,,,,,,,,,,,,,,,,,,,,,,/muse/elements/blink
2023-08-28 18:19:04.353,,,,,,,,,,,,,,,,,,,,,,,,,,,,,,,,,,,,,,/muse/elements/blink
2023-08-28 18:19:04.353,,,,,,,,,,,,,,,,,,,,,,,,,,,,,,,,,,,,,,/muse/elements/jaw_clench
2023-08-28 18:19:04.788,0.4314167173630299,0.1065826947187341,0.04181893985598131,0.7851250915771094,0.6897307967713664,0.1577836580370623,0.1406828981388556,0.7757645930781906,0.6240488739194126,0.6609741102819477,0.2226531257913515,0.8376779255044456,0.7577480374280717,0.6422075550907939,-0.0912530291111516,1.234547887690506,0.6148359516820253,0.3284454038129305,-0.3636539542992936,0.8672860591390464,721.2454212454213,805.8608058608058,802.6373626373627,437.985347985348,609.6336996336996,-0.354187,0.031860,0.929199,3.117828,-5.450592,-1.532745,1,2,1,1,2,85.000000
2023-08-28 18:19:04.898,,,,,,,,,,,,,,,,,,,,,,,,,,,,,,,,,,,,,,/muse/elements/blink
2023-08-28 18:19:05.754,,,,,,,,,,,,,,,,,,,,,,,,,,,,,,,,,,,,,,/muse/elements/blink
2023-08-28 18:19:05.789,0.5736884352081196,0.182752099246309,-0.3397451831832842,0.7851250915771094,-0.1086649417014729,-0.1437470784194632,0.03057268414877563,0.7757645930781906,0.5366944767326398,0.4496442614216574,0.3545483116434304,0.8376779255044456,0.8362775739160531,0.491295118623544,0.1027377877748196,1.234547887690506,0.5914049527798041,0.4196770346304869,-0.2335381702509564,0.8672860591390464,680.952380952381,797.3992673992674,801.8315018315019,234.9084249084249,610.4395604395604,-0.358582,0.056580,0.918213,1.891632,-0.448608,-1.241150,1,2,1,1,2,85.000000
2023-08-28 18:19:06.257,,,,,,,,,,,,,,,,,,,,,,,,,,,,,,,,,,,,,,/muse/elements/blink
2023-08-28 18:19:06.788,0.4250472650558445,0.5087810308615687,-0.2033811161856617,0.7851250915771094,0.1352996706609191,0.2616090994101489,-0.06277049223328753,0.7757645930781906,0.7854671650920207,0.7487107715422973,0.3370260434471065,0.8376779255044456,0.9019395987760251,0.4554648308925592,0.1649163282402244,1.234547887690506,0.6682869133168007,0.376311139401955,-0.06966150138318876,0.8672860591390464,724.0659340659341,778.4615384615385,794.981684981685,563.2967032967033,653.5531135531136,-0.395691,0.024841,0.905579,2.340240,-4.224396,0.127106,1,1,1,1,1,85.000000
2023-08-28 18:19:06.866,,,,,,,,,,,,,,,,,,,,,,,,,,,,,,,,,,,,,,/muse/elements/blink
2023-08-28 18:19:07.392,,,,,,,,,,,,,,,,,,,,,,,,,,,,,,,,,,,,,,/muse/elements/blink
2023-08-28 18:19:07.789,0.146168432453256,0.582203754893971,-0.2489530935945937,0.7851250915771094,0.2716045483245672,0.3812269999993409,-0.07946179789599257,0.7757645930781906,0.7854671650920207,0.7416016713930967,0.1850503344017673,0.8376779255044456,0.965264835609868,0.5142254175985355,0.1964083155980692,1.234547887690506,0.7462002556172722,0.3943385785300789,0.009347548009946555,0.8672860591390464,692.6373626373627,805.0549450549451,796.5934065934066,345.7142857142857,744.2124542124542,-0.399109,0.033020,0.905029,2.018738,-3.379517,0.201874,1,1,1,1,1,85.000000
2023-08-28 18:19:07.915,,,,,,,,,,,,,,,,,,,,,,,,,,,,,,,,,,,,,,/muse/elements/blink
2023-08-28 18:19:08.789,0.220826661428834,-0.2943320606363012,-0.3464752369447655,0.7851250915771094,0.7716749226816155,0.2051767403204134,-0.1707982834824915,0.7757645930781906,0.9832606033722541,0.3086313763875758,0.1674276522531572,0.8376779255044456,0.9189037704637307,0.442488095581487,0.1646018917693441,1.234547887690506,0.7289436378030475,0.2953408864012796,-0.136787283848205,0.8672860591390464,682.967032967033,794.5787545787546,795.7875457875458,190.1831501831502,492.3809523809524,-0.400452,0.037415,0.907104,2.100983,-2.983246,0.112152,1,1,1,1,1,85.000000
2023-08-28 18:19:08.880,,,,,,,,,,,,,,,,,,,,,,,,,,,,,,,,,,,,,,/muse/elements/blink
2023-08-28 18:19:09.207,,,,,,,,,,,,,,,,,,,,,,,,,,,,,,,,,,,,,,/muse/elements/blink
2023-08-28 18:19:09.490,,,,,,,,,,,,,,,,,,,,,,,,,,,,,,,,,,,,,,/muse/elements/blink
2023-08-28 18:19:09.789,0.3626157874250233,-0.1759670676092181,-0.4649415306109149,0.5254306173622719,0.9328861850422059,0.269724910414119,-0.1553009990633205,0.9071026480477539,1.27511048422341,0.7031305367807825,0.3786364186375337,0.9052668349353509,0.930510623220421,0.5272421466470443,0.05953439328420113,1.017573324071557,0.5717592698756238,0.224804513659624,-0.2211890065863176,0.9134415984300076,711.5750915750916,799.4139194139194,799.0109890109891,204.6886446886447,396.0805860805861,-0.398254,0.037659,0.908813,2.018738,-3.753357,-0.919647,1,1,1,1,1,85.000000
2023-08-28 18:19:09.910,,,,,,,,,,,,,,,,,,,,,,,,,,,,,,,,,,,,,,/muse/elements/blink
2023-08-28 18:19:10.722,,,,,,,,,,,,,,,,,,,,,,,,,,,,,,,,,,,,,,/muse/elements/blink
2023-08-28 18:19:10.788,0.1595508812722121,-0.005288392557594414,-0.4428746557210613,0.4852790092758753,1.016697277740246,0.356324637592196,-0.1006232227028026,0.7896875528576096,1.282731643402174,0.7055281432022152,0.4071188751647092,0.9327725394547183,0.7654123839055763,0.4070093383235814,0.1253287415030362,0.9312941140929893,0.6698233649140989,0.2611690961815293,-0.2830836596507262,0.8639653973326471,734.9450549450549,821.978021978022,804.6520146520147,300.5860805860806,564.9084249084249,-0.394348,0.034241,0.906738,1.884155,-3.244934,-0.530853,1,1,1,1,1,85.000000
2023-08-28 18:19:11.140,,,,,,,,,,,,,,,,,,,,,,,,,,,,,,,,,,,,,,/muse/elements/blink
2023-08-28 18:19:11.469,,,,,,,,,,,,,,,,,,,,,,,,,,,,,,,,,,,,,,/muse/elements/blink
2023-08-28 18:19:11.789,0.2831430334316443,0.503723945922144,-0.1543632846955103,0.4410335900568944,0.8038286849427613,0.2454587776002897,0.2187670399680915,0.6282635018054669,1.013227116464162,0.4539040871576815,0.3425784562921639,0.484723503574828,0.8274166208488596,0.3529451645555879,0.06440722131642537,0.823514785817824,0.7017854447158702,0.3188658131818884,-0.2461031320728999,0.8081192566240929,682.967032967033,792.5641025641025,796.5934065934066,215.970695970696,454.1025641025641,-0.396118,0.051514,0.910461,1.532745,-3.237457,-0.456085,1,1,1,1,1,85.000000
2023-08-28 18:19:12.458,,,,,,,,,,,,,,,,,,,,,,,,,,,,,,,,,,,,,,/muse/elements/blink
2023-08-28 18:19:12.790,0.2831430334316443,0.52740252583515,-0.1711645250905205,0.4410335900568944,0.8038286849427613,0.2614437122997726,-0.109048044859465,0.6282635018054669,1.013227116464162,0.4622984563798306,0.127656709894111,0.484723503574828,0.8274166208488596,0.4611371848914665,0.2376841498126607,0.823514785817824,0.7017854447158702,0.213299111622145,-0.1855880329987869,0.8081192566240929,687.8021978021978,799.8168498168499,796.996336996337,293.3333333333333,526.6300366300367,-0.394714,0.042175,0.904541,1.786957,-3.222504,-0.725250,1,1,1,1,1,85.000000
2023-08-28 18:19:13.076,,,,,,,,,,,,,,,,,,,,,,,,,,,,,,,,,,,,,,/muse/elements/blink
2023-08-28 18:19:13.298,,,,,,,,,,,,,,,,,,,,,,,,,,,,,,,,,,,,,,/muse/elements/blink
2023-08-28 18:19:13.496,,,,,,,,,,,,,,,,,,,,,,,,,,,,,,,,,,,,,,/muse/elements/blink
2023-08-28 18:19:13.793,0.8356912713315501,0.3767663615548243,-0.3914847487211773,0.4410335900568944,0.8551084001532472,0.3170808507717132,-0.2256245779048236,0.6282635018054669,1.297645397214371,0.4075264119465549,0.2148218160581105,0.484723503574828,0.9063566123484046,0.6506120042755509,0.2601316004724878,0.823514785817824,0.5460049544016846,0.2856928130306172,-0.2987335400255583,0.8081192566240929,657.5824175824176,800.6227106227107,795.3846153846154,189.7802197802198,394.8717948717949,-0.392883,0.051819,0.905701,2.086029,-4.201965,-1.031799,1,1,1,1,1,85.000000
2023-08-28 18:19:14.789,1.051596429814848,0.4850865197712749,-0.3466728866562493,0.4410335900568944,1.087983753313793,0.2307973252978074,-0.06686498805220537,0.6282635018054669,1.297645397214371,0.4119346062872417,0.336613186786039,0.484723503574828,0.9026723935534136,0.5129817217856373,0.1529099787298172,0.823514785817824,0.5543585345350539,0.3471537282245046,-0.2228934035351877,0.8081192566240929,668.4615384615385,795.3846153846154,791.7582417582418,246.5934065934066,462.5641025641026,-0.395142,0.051514,0.907776,1.899109,-3.566437,-0.717773,1,1,1,1,1,85.000000
2023-08-28 18:19:15.322,,,,,,,,,,,,,,,,,,,,,,,,,,,,,,,,,,,,,,/muse/elements/blink
2023-08-28 18:19:15.789,0.6680050297344953,0.3368912196910837,-0.123908643744353,0.4410335900568944,0.4509901799664894,-0.1061962831254454,-0.1342965793113504,0.6282635018054669,0.792619711303061,0.2523757477897311,0.3097686115039475,0.484723503574828,0.8930308038866447,0.3754703834600724,0.1419341893892965,0.823514785817824,0.4516300667434703,0.3555765938056142,-0.17960460581253,0.8081192566240929,743.8095238095239,786.9230769230769,804.6520146520147,451.6849816849817,496.8131868131868,-0.400818,0.039429,0.904785,1.988831,-2.579498,-0.351410,1,1,1,1,1,85.000000
2023-08-28 18:19:16.441,,,,,,,,,,,,,,,,,,,,,,,,,,,,,,,,,,,,,,/muse/elements/blink
2023-08-28 18:19:16.789,0.2339898306521421,0.2080599464610073,-0.06878687934606829,0.4956556359565674,0.3574854853281523,0.1690354437664107,-0.2141976910978665,0.2806150225244934,0.8912132678013621,0.7346292524689018,0.1757228949169777,0.7521656110682682,1.022119185644694,0.4212866358451775,0.1639612722069028,0.9744466345114539,0.450732583473229,0.3325386142646288,-0.198471223421421,0.8279186373506797,691.025641025641,794.5787545787546,803.4432234432235,268.3516483516484,516.959706959707,-0.402405,0.042847,0.901245,2.048645,-3.514099,-0.463562,1,1,1,1,1,85.000000
2023-08-28 18:19:17.789,-0.0575303661564964,0.3699214825111567,-0.03776316612868898,0.5812349767205435,0.4434788170306597,0.2695343456070257,0.06540576750127695,0.4213503024816615,0.8373886796279864,0.7311792465228766,0.1062038065377818,0.6923529934324568,1.134804827456483,0.4183263373059405,0.1150462225351055,0.9413989886921333,0.5294965519612918,0.3287647499881515,-0.03185644166424809,0.7977136622082599,694.6520146520147,804.2490842490843,793.7728937728938,305.8241758241758,520.989010989011,-0.400330,0.048340,0.903931,2.243042,-3.177643,-0.314026,1,1,1,1,1,85.000000
2023-08-28 18:19:17.842,,,,,,,,,,,,,,,,,,,,,,,,,,,,,,,,,,,,,,/muse/elements/blink
2023-08-28 18:19:18.264,,,,,,,,,,,,,,,,,,,,,,,,,,,,,,,,,,,,,,/muse/elements/blink
2023-08-28 18:19:18.791,0.9087685141640047,-0.01436071051400732,-0.03419897607518903,0.5812349767205435,0.4477016379758994,-0.1454149197830453,0.04448418333428721,0.4213503024816615,0.703940321417815,0.3851315955548325,0.1350183108240431,0.6923529934324568,0.9529374289908321,0.5153868970658453,0.01994186141033933,0.9413989886921333,0.6511666947198419,0.2458325393662592,-0.1920620262147021,0.7977136622082599,657.1794871794872,783.6996336996338,800.6227106227107,222.4175824175824,403.3333333333334,-0.389648,0.051025,0.909119,2.175751,-3.738403,-1.600037,1,1,1,1,1,85.000000
2023-08-28 18:19:19.056,,,,,,,,,,,,,,,,,,,,,,,,,,,,,,,,,,,,,,/muse/elements/jaw_clench
2023-08-28 18:19:19.254,,,,,,,,,,,,,,,,,,,,,,,,,,,,,,,,,,,,,,/muse/elements/blink
2023-08-28 18:19:19.788,0.7722420597809485,0.04631682763887403,-0.3109177142087562,0.5812349767205435,0.3232787694306225,-0.102381995783729,-0.1665005685687305,0.4213503024816615,0.703940321417815,0.0892096618427158,0.07923006386164441,0.6923529934324568,0.9504392834075739,0.6203321283779789,0.00693349065586932,0.9413989886921333,0.5456578408040685,0.1987896896271892,-0.181319692200114,0.7977136622082599,678.1318681318681,793.3699633699634,798.2051282051282,137.3992673992674,496.007326007326,-0.436218,0.048645,0.887512,1.644897,-2.332764,-0.545807,1,1,1,1,1,90.000000
2023-08-28 18:19:19.851,,,,,,,,,,,,,,,,,,,,,,,,,,,,,,,,,,,,,,/muse/elements/blink
2023-08-28 18:19:20.789,0.7722420597809485,0.406637128200484,-0.2876781494446838,0.5812349767205435,0.3232787694306225,0.3030442151756402,-0.1055892824497258,0.4213503024816615,0.703940321417815,0.2644424461065942,0.07847315507673572,0.6923529934324568,0.9504392834075739,0.6243785586319158,0.07575084948118802,0.9413989886921333,0.5456578408040685,0.357092486696343,-0.1670940644139715,0.7977136622082599,720.0366300366301,774.4322344322345,777.2527472527473,322.7472527472527,437.1794871794872,-0.429749,0.036682,0.887756,1.757050,-3.200073,0.261688,1,2,1,1,2,90.000000
2023-08-28 18:19:21.795,0.8466915394700009,0.2482092745744125,-0.1355508217738005,0.5812349767205435,0.6143941580286479,0.2827640620513785,-0.129312361486091,0.4213503024816615,0.9912141658832768,0.3911368137096871,0.3275353551261153,0.6923529934324568,0.9063944051134295,0.6668489769299014,0.5511807908411455,0.9413989886921333,0.6474576794674675,0.4450528218872761,0.5718482442218668,0.7977136622082599,700.6959706959707,798.6080586080586,793.3699633699634,158.7545787545788,384.7985347985348,-0.419678,0.040161,0.891418,2.145844,-3.035583,-1.323395,1,1,1,1,1,90.000000
2023-08-28 18:19:22.788,0.8146695981388945,-0.03136422512729073,-0.4404725791240631,0.5812349767205435,0.5955002078375189,0.03757926441699559,-0.3733859928991021,0.4213503024816615,0.9912141658832768,-0.04930453844062349,0.2186952911902644,0.6923529934324568,0.9813822856278235,0.5732455571771603,0.4594168536186217,0.9413989886921333,0.5556590543522403,0.3936657634424566,0.2955049900560253,0.7977136622082599,701.9047619047619,788.9377289377289,800.2197802197802,255.8608058608059,436.7765567765568,-0.422485,0.043884,0.897095,1.929016,-3.102875,-0.448608,1,1,1,1,1,90.000000
2023-08-28 18:19:23.336,,,,,,,,,,,,,,,,,,,,,,,,,,,,,,,,,,,,,,/muse/elements/blink
2023-08-28 18:19:23.789,0.4750211723801467,0.3859906231008084,-0.6315431678674259,0.5812349767205435,0.3509152227781107,0.2198469940465415,-0.08877256401260414,0.4213503024816615,0.5983155325035252,0.6042200997495299,0.1310030762976682,0.6923529934324568,0.9837513159672098,0.5856982146360671,0.3127022871874692,0.9413989886921333,0.4965704737482851,0.3485039423152317,0.05975629406266303,0.7977136622082599,755.8974358974359,795.3846153846154,795.3846153846154,480.2930402930403,534.6886446886447,-0.419983,0.042908,0.896301,1.839294,-3.342133,-0.590668,1,1,1,1,1,90.000000
2023-08-28 18:19:24.260,,,,,,,,,,,,,,,,,,,,,,,,,,,,,,,,,,,,,,/muse/elements/blink
2023-08-28 18:19:24.790,0.3161428332512603,0.6023574868493916,-0.03752037287582104,0.5812349767205435,0.2060807214754711,0.3432803232479489,0.04913018859431334,0.4213503024816615,0.5527162203729034,0.6297068948162352,0.3850534984126961,0.6923529934324568,0.9542593158259446,0.5683973093170063,0.3919873692497729,0.9413989886921333,0.5690155314402641,0.2100811938173005,0.1218702518080067,0.7977136622082599,684.5787545787546,787.3260073260074,796.996336996337,205.4945054945055,485.9340659340659,-0.418945,0.041138,0.892761,1.824341,-3.790741,-0.822449,1,1,1,1,1,90.000000
2023-08-28 18:19:25.341,,,,,,,,,,,,,,,,,,,,,,,,,,,,,,,,,,,,,,/muse/elements/blink
2023-08-28 18:19:25.791,0.3161428332512603,0.5755551589503431,0.2080610660223316,0.5812349767205435,0.2060807214754711,0.5032307981921743,0.387338988424779,0.4213503024816615,0.5527162203729034,0.4809106289360922,0.3395901278090811,0.6923529934324568,0.9542593158259446,0.6171358667092713,0.4429805999829728,0.9413989886921333,0.5690155314402641,0.3786380842443313,-0.05433527183212709,0.7977136622082599,753.8827838827839,799.0109890109891,787.3260073260074,395.2747252747253,518.974358974359,-0.424194,0.060303,0.896851,2.257996,-4.837494,0.314026,1,2,1,1,2,90.000000
2023-08-28 18:19:25.867,,,,,,,,,,,,,,,,,,,,,,,,,,,,,,,,,,,,,,/muse/elements/blink
2023-08-28 18:19:26.789,0.3161428332512603,0.8023579209972531,0.1356560838242888,0.5812349767205435,0.2060807214754711,0.6964824635446827,0.3912574063201639,0.4213503024816615,0.5527162203729034,0.4839193494247379,0.2771189300708344,0.6923529934324568,0.9542593158259446,0.5093254368429868,0.2524591567113796,0.9413989886921333,0.5690155314402641,0.3801946824070788,-0.02859600100665969,0.7977136622082599,801.8315018315019,792.1611721611722,795.7875457875458,672.893772893773,554.0293040293041,-0.423401,0.038269,0.897583,2.243042,-3.454285,-0.515900,1,2,1,1,2,90.000000
2023-08-28 18:19:26.892,,,,,,,,,,,,,,,,,,,,,,,,,,,,,,,,,,,,,,/muse/elements/blink
2023-08-28 18:19:27.417,,,,,,,,,,,,,,,,,,,,,,,,,,,,,,,,,,,,,,/muse/elements/blink
2023-08-28 18:19:27.594,,,,,,,,,,,,,,,,,,,,,,,,,,,,,,,,,,,,,,/muse/elements/blink
2023-08-28 18:19:27.789,0.4209269019892126,0.1391151150054679,-0.06199583642103747,0.5812394865028043,0.5307915088680484,0.2000148712772071,0.1327271696640656,0.7302338047903217,0.8565615457114663,0.3302067064056463,0.2278932581384603,1.051234472382619,0.8392109435199778,0.6257358018780327,0.2964174666058131,0.9130700518613967,0.6780159336782728,0.3441167816692658,-0.1177273693426548,0.8673831547839159,835.2747252747253,800.2197802197802,796.5934065934066,940.0366300366301,746.6300366300367,-0.421875,0.039795,0.892883,1.996307,-3.125305,-0.366364,1,1,1,1,1,90.000000
2023-08-28 18:19:28.540,,,,,,,,,,,,,,,,,,,,,,,,,,,,,,,,,,,,,,/muse/elements/blink
2023-08-28 18:19:28.793,0.5877327061551746,0.2546287559798646,-0.3539598996611572,0.9244716703389595,0.6201408298335501,0.1907950168003396,-0.1032514431145886,0.9979812230846355,0.8527826904073437,0.5355096418007008,0.05287814954058765,1.140488781963468,1.037102138859616,0.7394982364254088,0.2564268461887481,0.9538657938955639,0.673212372773505,0.4545125935972825,-0.05250426821865726,0.9738261371603286,760.7326007326008,782.0879120879121,803.4432234432235,611.2454212454213,701.9047619047619,-0.428528,0.034363,0.892334,2.108459,-3.603821,-0.770111,1,1,1,1,1,90.000000
2023-08-28 18:19:29.136,,,,,,,,,,,,,,,,,,,,,,,,,,,,,,,,,,,,,,/muse/elements/blink
2023-08-28 18:19:29.511,,,,,,,,,,,,,,,,,,,,,,,,,,,,,,,,,,,,,,/muse/elements/blink
2023-08-28 18:19:29.789,0.7216730089186612,0.473688669841634,-0.2671967683038408,1.021426536268363,0.6407854143280954,0.4386822520342254,-0.2759396070084808,1.100851778240872,0.8012065431729135,0.5782264638858812,0.08674056968056305,1.129813718688171,1.185660818686294,0.5384745736716668,0.1546763031500854,0.9988596028747598,0.6035045440602398,0.2994654947902785,-0.05648233323038861,0.9870134040220551,817.5457875457876,789.7435897435897,792.1611721611722,836.0805860805862,649.1208791208792,-0.419250,0.045715,0.899475,1.846771,-3.095398,-0.007477,1,1,1,1,1,90.000000
2023-08-28 18:19:29.860,,,,,,,,,,,,,,,,,,,,,,,,,,,,,,,,,,,,,,/muse/elements/blink
2023-08-28 18:19:30.798,0.6872392510905627,-0.2785403464923733,-0.3149244195399653,0.2108352530138762,0.3314010833049816,-0.410664433683082,-0.1866315105899162,0.6831030849335806,0.7774054498657917,0.1683109480977438,-0.199054916702942,1.051894455606521,0.7141191317318607,0.4221183346298611,0.1568871456705218,0.9978082466095676,0.3957412420281651,0.201543580698625,0.001438898194130438,0.9058641383557142,749.8534798534798,793.3699633699634,796.1904761904763,514.5421245421246,571.7582417582418,-0.418091,0.035461,0.900818,1.966400,-4.082336,-0.441132,1,1,1,1,1,90.000000
2023-08-28 18:19:31.788,0.5620899754099805,-0.2250548131815528,-0.4223295436563989,0.2122176157270894,0.2478674772832611,-0.611229205475871,-0.2844013890025771,0.9670269528017417,0.8760245312969539,0.3367746899411074,-0.07324269614495332,0.8977250487308819,0.816359558597243,0.3627098760088397,0.1738695192474153,0.9260815775666291,0.4382764499404676,-0.006926588326136283,-0.1037924930726802,0.8871048622953458,804.6520146520147,799.8168498168499,787.3260073260074,792.967032967033,734.1391941391942,-0.418152,0.033081,0.895508,1.585083,-4.418793,-0.957031,1,1,1,1,1,90.000000
2023-08-28 18:19:32.461,,,,,,,,,,,,,,,,,,,,,,,,,,,,,,,,,,,,,,/muse/elements/blink
2023-08-28 18:19:32.789,0.7360738638201038,0.3804409874143631,-0.2440918718415558,0.2667443175855136,0.4326781641659002,0.1592611688896033,-0.08687126607937298,0.9334328497667417,0.8502941372427975,0.5700148191638017,-0.1494208135946392,0.6624102541812676,0.9510702905465238,0.3898836517023892,0.1224527493223074,0.858152039598154,0.4711458864411049,-0.02729763177755228,-0.146929216596559,0.9439622604073905,868.3150183150184,788.1318681318681,790.1465201465202,1072.600732600733,677.3260073260074,-0.423584,0.044556,0.899414,1.742096,-3.446808,-0.979462,1,1,1,1,1,90.000000
2023-08-28 18:19:33.402,,,,,,,,,,,,,,,,,,,,,,,,,,,,,,,,,,,,,,/muse/elements/blink
2023-08-28 18:19:33.772,,,,,,,,,,,,,,,,,,,,,,,,,,,,,,,,,,,,,,/muse/elements/blink
2023-08-28 18:19:33.789,0.6648058863930751,0.5652334917111715,0.02432934746774148,0.2667443175855136,0.4381639256871826,0.4136757547507675,-0.1190670514146373,0.9334328497667417,0.4431268239497766,0.5933993616937431,0.04869726715553879,0.6624102541812676,0.9649857140443039,0.3281743018862752,0.2076605002026447,0.858152039598154,0.458733114513186,0.2594754682123274,-0.2134079958553564,0.9439622604073905,778.4615384615385,793.7728937728938,798.6080586080586,711.1721611721612,538.7179487179487,-0.410950,0.039001,0.895142,2.145844,-4.059906,-0.859833,1,1,1,1,1,90.000000
2023-08-28 18:19:34.789,0.6648058863930751,0.3793880303915629,-0.03555100273243928,0.2667443175855136,0.4381639256871826,0.1814368774038183,-0.1412602197593333,0.9334328497667417,0.4431268239497766,0.5458542872886437,0.1190295252969512,0.6624102541812676,0.9649857140443039,0.4241104799060476,0.1694926403825669,0.858152039598154,0.458733114513186,0.2340475647365217,-0.1004941238187875,0.9439622604073905,867.1062271062272,802.6373626373627,798.2051282051282,1025.860805860806,759.5238095238095,-0.402161,0.040588,0.901001,1.472931,-3.155212,-0.702820,1,1,1,1,1,90.000000
2023-08-28 18:19:34.908,,,,,,,,,,,,,,,,,,,,,,,,,,,,,,,,,,,,,,/muse/elements/blink
2023-08-28 18:19:35.414,,,,,,,,,,,,,,,,,,,,,,,,,,,,,,,,,,,,,,/muse/elements/blink
2023-08-28 18:19:35.796,0.9834397831518402,0.2283286024156461,-0.0845916273137069,0.2667443175855136,0.5730899613058171,0.07167904635630522,-0.02648209395549065,0.9334328497667417,0.878269622028011,0.2634262166907416,0.2400735471964045,0.6624102541812676,0.9829173178187534,0.3831811782410056,0.1467198364628529,0.858152039598154,0.4673540915483791,0.08882649477819458,-0.2591395191560533,0.9439622604073905,764.3589743589744,788.1318681318681,791.7582417582418,659.1941391941392,649.92673992674,-0.408691,0.043091,0.902466,1.652374,-2.923431,-0.441132,1,1,1,1,1,90.000000
2023-08-28 18:19:36.789,0.4291145627573008,0.05946086347168094,-0.02809590757579079,0.2667443175855136,0.5144435884261964,0.02699715684207219,0.05175907815515104,0.9334328497667417,0.9641252856507596,0.3841777747474867,0.09839887199393395,0.6624102541812676,0.8301558590773043,0.3840664165006847,0.1421100237302505,0.858152039598154,0.3676182699743175,0.1231971205111033,-0.2517912245173954,0.9439622604073905,847.3626373626374,792.5641025641025,800.2197802197802,923.919413919414,691.8315018315019,-0.405518,0.036743,0.900696,1.996307,-3.416901,-0.403748,1,1,1,1,1,90.000000
2023-08-28 18:19:36.925,,,,,,,,,,,,,,,,,,,,,,,,,,,,,,,,,,,,,,/muse/elements/blink
2023-08-28 18:19:37.788,0.6432348220759248,0.22415488306133,0.108048075822622,0.2667443175855136,0.4359264954294558,-0.1632713907576433,-0.09582834864302908,0.9334328497667417,0.9554801313068398,0.3554396474934502,0.1939206501468357,0.6624102541812676,0.8591133302025015,0.6047238412029929,0.1149717192005547,0.858152039598154,0.4048683632643267,0.1191842178558615,-0.1971128621091999,0.9439622604073905,878.7912087912089,800.6227106227107,796.1904761904763,1199.120879120879,929.96336996337,-0.412476,0.046448,0.901306,2.071075,-2.990723,-0.598145,1,1,1,1,1,90.000000
2023-08-28 18:19:38.371,,,,,,,,,,,,,,,,,,,,,,,,,,,,,,,,,,,,,,/muse/elements/blink
2023-08-28 18:19:38.788,0.4400972162615207,0.4051843422089619,-0.004758138692605691,0.2667443175855136,0.3246930993136516,0.2193277921326553,-0.3022131833615526,0.9334328497667417,0.7380876422409074,0.4202688168451918,0.1023507501490174,0.6624102541812676,0.764665175039751,0.4779888670348517,-0.07052167099620651,0.858152039598154,0.5773669009490928,0.3225411135385954,-0.1905565333400823,0.9439622604073905,803.040293040293,788.1318681318681,799.0109890109891,898.1318681318681,635.8241758241759,-0.413696,0.043640,0.895386,2.011261,-3.850555,-0.792542,1,1,1,1,1,90.000000
2023-08-28 18:19:39.072,,,,,,,,,,,,,,,,,,,,,,,,,,,,,,,,,,,,,,/muse/elements/blink
2023-08-28 18:19:39.683,,,,,,,,,,,,,,,,,,,,,,,,,,,,,,,,,,,,,,/muse/elements/blink
2023-08-28 18:19:39.788,0.5098234638796713,0.5943524076347085,-0.2019814827079574,0.2667443175855136,0.499089302666184,0.5214256374304073,-0.09436731553801297,0.9334328497667417,0.5485037131626621,0.4501818101936056,0.1815152282749901,0.6624102541812676,0.7603454373844181,0.5331481306763888,0.1145632041467172,0.858152039598154,0.5275802506932662,0.291039157532008,-0.2482197828854978,0.9439622604073905,869.1208791208792,782.893772893773,793.3699633699634,1148.351648351648,799.8168498168499,-0.427490,0.045227,0.898682,2.100983,-2.893524,-0.426178,1,1,1,1,1,90.000000
2023-08-28 18:19:40.099,,,,,,,,,,,,,,,,,,,,,,,,,,,,,,,,,,,,,,/muse/elements/blink
2023-08-28 18:19:40.711,,,,,,,,,,,,,,,,,,,,,,,,,,,,,,,,,,,,,,/muse/elements/blink
2023-08-28 18:19:40.788,0.6023096018451292,0.8451584660878634,-0.4015041988375931,0.2667443175855136,0.5838356318726592,0.2158483215798591,-0.05567449973048171,0.9334328497667417,0.5485037131626621,0.460749377694932,0.2064684850826773,0.6624102541812676,0.7471056810895199,0.484525871550008,0.1263891956462515,0.858152039598154,0.5305248833115199,0.2553265139919243,-0.2010728500103993,0.9439622604073905,932.7838827838829,782.893772893773,792.967032967033,1342.967032967033,1024.652014652015,-0.419434,0.039062,0.897339,1.600037,-3.222504,-0.770111,1,1,1,1,1,90.000000
2023-08-28 18:19:41.432,,,,,,,,,,,,,,,,,,,,,,,,,,,,,,,,,,,,,,/muse/elements/blink
2023-08-28 18:19:41.695,,,,,,,,,,,,,,,,,,,,,,,,,,,,,,,,,,,,,,/muse/elements/blink
2023-08-28 18:19:41.791,0.6023096018451292,1.155657496054672,0.06895046958828978,0.2667443175855136,0.5838356318726592,0.6501420171173073,0.2230197681002033,0.9334328497667417,0.5485037131626621,0.5956787066552005,0.7562205477563323,0.6624102541812676,0.7471056810895199,0.5423992551068839,0.3094798084719387,0.858152039598154,0.5305248833115199,0.2477866207898463,0.004493594575970786,0.9439622604073905,912.2344322344322,807.4725274725275,796.5934065934066,1158.424908424908,813.919413919414,-0.413818,0.051514,0.895386,1.786957,-3.058014,-0.725250,1,2,1,1,2,90.000000
2023-08-28 18:19:42.718,,,,,,,,,,,,,,,,,,,,,,,,,,,,,,,,,,,,,,/muse/elements/blink
2023-08-28 18:19:42.788,0.6023096018451292,0.3440846293659726,0.4090394709932672,0.2667443175855136,0.5838356318726592,0.5986836193303378,0.3644199256977819,0.9334328497667417,0.5485037131626621,0.3517788504331232,0.7628456469070056,0.6624102541812676,0.7471056810895199,0.3578585315099023,0.3317609501967114,0.858152039598154,0.5305248833115199,0.2759792262801473,0.03426746043207554,0.9439622604073905,887.6556776556777,819.1575091575091,791.3553113553114,1218.058608058608,1033.516483516484,-0.415649,0.051147,0.894958,1.742096,-4.209442,-0.388794,1,2,1,1,2,90.000000
2023-08-28 18:19:43.148,,,,,,,,,,,,,,,,,,,,,,,,,,,,,,,,,,,,,,/muse/elements/blink
2023-08-28 18:19:43.541,,,,,,,,,,,,,,,,,,,,,,,,,,,,,,,,,,,,,,/muse/elements/blink
2023-08-28 18:19:43.791,0.6023096018451292,0.4200803270326735,0.07162082239911664,0.2667443175855136,0.5838356318726592,0.497305655458726,0.2346768257362011,0.9334328497667417,0.5485037131626621,0.4645697091061523,0.1274818347233027,0.6624102541812676,0.7471056810895199,0.4117121333094662,0.2390906335871623,0.858152039598154,0.5305248833115199,0.2749073878323745,-0.07744724963393027,0.9439622604073905,929.96336996337,801.4285714285714,787.7289377289378,1392.124542124542,1062.527472527473,-0.412659,0.056763,0.900635,1.629944,-3.573914,-0.104675,1,2,1,1,2,90.000000
2023-08-28 18:19:44.788,0.7301008318036115,0.3859303234627346,-0.09507873524439091,1.16377382006354,0.736556163884629,0.4092391631486441,0.1350701895053309,0.945935838964342,0.8706629701923501,0.4107116311862199,0.09519295096194808,0.9066684916646005,0.9105777577017653,0.4632640488852332,0.1637099051855771,0.9777591258684377,0.502572518170735,0.2272146631961932,-0.1661544030362241,0.7385185195208105,757.9120879120879,801.8315018315019,806.6666666666667,701.0989010989011,797.3992673992674,-0.427429,0.049377,0.897827,2.063599,-3.962708,-0.261688,1,1,1,1,1,90.000000
2023-08-28 18:19:45.589,,,,,,,,,,,,,,,,,,,,,,,,,,,,,,,,,,,,,,/muse/elements/blink
2023-08-28 18:19:45.795,0.5152233721246938,0.369856852014123,-0.06999491696665014,0.9104098054112431,0.282552345672917,0.1900747565551208,-0.2064723719653843,0.7518743329764834,0.8141734210025174,0.4130800800070085,0.3003296992875903,1.002926594322521,0.9728231300492987,0.4083333137516194,0.05191759756193876,1.186728192344106,0.4879064150009754,0.298994158572899,-0.3313178299034854,0.9659391556515706,902.1611721611722,801.025641025641,795.7875457875458,1367.545787545788,984.3589743589744,-0.415466,0.052063,0.898682,1.375732,-3.147736,-0.942078,1,1,1,1,1,90.000000
2023-08-28 18:19:46.788,0.4769870434518395,0.6493953062423705,-0.02793311929341132,0.641282625162542,0.287911957590792,0.2081838476098899,-0.1847629733492543,0.742003154062387,0.7926548751952828,0.4445063555515745,0.3005745740177259,0.8050073518382,0.9358095851551949,0.314399341241277,0.09056473329421433,1.235459313790156,0.4888498708092871,0.1805387848994698,-0.3801785765844579,0.9934266640746454,895.3113553113553,796.996336996337,792.1611721611722,1295.824175824176,1073.003663003663,-0.416382,0.041565,0.898743,1.682281,-3.536530,-0.029907,1,1,1,1,1,90.000000
2023-08-28 18:19:47.427,,,,,,,,,,,,,,,,,,,,,,,,,,,,,,,,,,,,,,/muse/elements/blink
2023-08-28 18:19:47.797,0.2983483959523731,0.6549251933983352,0.2150750370632335,0.641282625162542,0.05291162107082439,0.3348242084754633,-0.3672192326496658,0.742003154062387,0.6022420714298655,0.3608912720160203,0.1461845964230576,0.8050073518382,0.879851988348907,0.4614896201891244,0.1216297702448802,1.235459313790156,0.5875724489077728,0.06358431004059634,-0.252711133968161,0.9934266640746454,850.5860805860806,777.2527472527473,799.4139194139194,1308.315018315018,962.1978021978023,-0.414490,0.044678,0.900574,1.637421,-2.504730,-0.740204,1,1,1,1,1,90.000000
2023-08-28 18:19:48.024,,,,,,,,,,,,,,,,,,,,,,,,,,,,,,,,,,,,,,/muse/elements/blink
2023-08-28 18:19:48.223,,,,,,,,,,,,,,,,,,,,,,,,,,,,,,,,,,,,,,/muse/elements/blink
2023-08-28 18:19:48.788,0.2983483959523731,0.8021756180278132,-0.1912714303703941,0.641282625162542,0.05291162107082439,0.5808601005527625,-0.02460312406750172,0.742003154062387,0.6022420714298655,0.7015383968898768,0.08827721463217066,0.8050073518382,0.879851988348907,0.5590988652692924,0.06776151791475932,1.235459313790156,0.5875724489077728,0.3472776603337028,-0.1522532094407268,0.9934266640746454,809.4871794871796,771.6117216117216,796.1904761904763,1248.278388278388,933.1868131868132,-0.420288,0.049194,0.895447,1.712189,-3.544006,-0.628052,1,1,1,1,1,90.000000
2023-08-28 18:19:49.011,,,,,,,,,,,,,,,,,,,,,,,,,,,,,,,,,,,,,,/muse/elements/blink
2023-08-28 18:19:49.625,,,,,,,,,,,,,,,,,,,,,,,,,,,,,,,,,,,,,,/muse/elements/blink
2023-08-28 18:19:49.788,0.2983483959523731,0.9055850291858616,-0.1483413075772907,0.641282625162542,0.05291162107082439,0.6121642337154733,0.005556193822404997,0.742003154062387,0.6022420714298655,0.7756996317558528,0.1802536296101614,0.8050073518382,0.879851988348907,0.5637973749229751,0.1296796887179371,1.235459313790156,0.5875724489077728,0.2829495651183035,-0.1895123273458307,0.9934266640746454,887.6556776556777,804.2490842490843,790.952380952381,1207.985347985348,1065.347985347985,-0.406616,0.043823,0.901062,1.891632,-4.545898,-1.300964,1,2,1,1,2,90.000000
2023-08-28 18:19:50.128,,,,,,,,,,,,,,,,,,,,,,,,,,,,,,,,,,,,,,/muse/elements/blink
2023-08-28 18:19:50.790,0.2983483959523731,0.5935056677091806,0.2817146591952179,0.641282625162542,0.05291162107082439,0.5181946303903789,0.1017764745199981,0.742003154062387,0.6022420714298655,0.6323742166358781,0.1594548703747837,0.8050073518382,0.879851988348907,0.4709311097253989,0.09060037810800148,1.235459313790156,0.5875724489077728,0.1825901035925942,-0.2421475458812188,0.9934266640746454,857.8388278388279,808.2783882783883,811.5018315018315,1173.736263736264,992.4175824175825,-0.409607,0.046692,0.901306,1.689758,-2.856140,-0.605621,1,2,1,1,2,70.000000
2023-08-28 18:19:51.263,,,,,,,,,,,,,,,,,,,,,,,,,,,,,,,,,,,,,,/muse/elements/blink
2023-08-28 18:19:51.798,0.9005611052300534,0.3474179365992043,0.1770285650176352,1.278981694845005,1.151575309247193,0.674156429341346,0.0595653786409018,1.104401250688628,1.089198434204993,0.5670421747820076,0.3820372476708784,1.199544499179624,0.7108586957377134,0.5044631915638667,0.2335605585413509,0.982164178865389,0.5910521295406433,0.0306563326414583,-0.2340524103164733,0.8583433325333832,816.7399267399268,791.7582417582418,797.8021978021978,912.2344322344322,944.8717948717949,-0.409424,0.044312,0.897034,1.921539,-3.469238,-0.755157,1,1,1,1,1,70.000000
2023-08-28 18:19:51.963,,,,,,,,,,,,,,,,,,,,,,,,,,,,,,,,,,,,,,/muse/elements/blink
2023-08-28 18:19:52.788,1.093266030556691,0.2192765118735627,0.0117814486992895,1.317196786505032,0.9850078469906636,0.4607252020382226,0.05362636876334698,1.095812427502874,1.155484598595976,0.4287966461832415,0.3349723185387037,1.247244851521398,0.6558823742290217,0.3985739646581776,0.08663389759579722,0.9554692436391093,0.4297114365949346,0.003639508981361794,-0.279535315176657,0.8774188260546888,726.0805860805862,797.3992673992674,792.1611721611722,552.4175824175825,689.4139194139194,-0.412476,0.036011,0.896912,1.981354,-3.521576,-1.016846,1,1,1,1,1,70.000000
2023-08-28 18:19:53.790,0.3099972158438432,-0.05393139575087569,-0.1998878431953835,0.4716829093737689,0.6426294058970591,0.02327908595690443,0.05314125630459236,0.5986403958690663,0.9813412796380987,0.3285306855642011,0.1735653216545179,0.9555428983484592,0.7468062156311608,0.3924046987782842,0.02957389961735098,1.127911461684549,0.3452593881391275,-0.02300581012084276,-0.07194828119992033,0.7478980025996641,695.8608058608058,805.0549450549451,798.6080586080586,340.0732600732601,617.2893772893773,-0.417480,0.037231,0.898254,1.600037,-3.476715,-0.657959,1,1,1,1,1,70.000000
2023-08-28 18:19:54.788,0.2932554945970255,-0.3001385825553566,-0.1937264006883839,0.6038453454700465,0.5320272470796996,-0.07425727555146891,-0.1569735013893252,0.7559831747124428,0.7045308744564569,0.3835639017227356,0.07021136010372556,1.004217014825251,0.7278353427664807,0.3202943689911786,0.03029775599989275,1.003771218719244,0.3388796508724943,-0.06766193571918226,-0.1022566312618184,0.7146735760524805,673.2967032967033,797.3992673992674,797.8021978021978,252.6373626373627,612.4542124542124,-0.408752,0.039734,0.894104,1.577606,-4.067383,-0.919647,1,1,1,1,1,70.000000
2023-08-28 18:19:55.719,,,,,,,,,,,,,,,,,,,,,,,,,,,,,,,,,,,,,,/muse/elements/blink
2023-08-28 18:19:55.787,0.5961443430021259,-0.06236893971646532,-0.2351610348170061,1.165062878280797,0.4837750708656073,-0.02612801220371972,0.01922136019400046,0.959802164356889,0.7447368258795318,0.3611028501470855,0.07129986650371874,0.9119161036443427,0.7798313044120678,0.2295758129211066,0.1011558354465252,0.9767630771671608,0.3105686330053865,-0.08906118245631667,-0.2701277694880982,0.7888134133934467,720.8424908424909,799.8168498168499,801.025641025641,454.9084249084249,639.8534798534798,-0.413147,0.035400,0.894226,1.614990,-2.564545,-1.256104,1,1,1,1,1,70.000000
2023-08-28 18:19:56.227,,,,,,,,,,,,,,,,,,,,,,,,,,,,,,,,,,,,,,/muse/elements/blink
2023-08-28 18:19:56.426,,,,,,,,,,,,,,,,,,,,,,,,,,,,,,,,,,,,,,/muse/elements/blink
2023-08-28 18:19:56.788,0.7646885891307585,0.4736900549101281,0.02798794165825849,1.191992350069891,0.633821616951309,0.1797170380646099,0.09508624512346098,0.9044271290228733,0.8477065401705632,0.200076916577685,0.1960735305450539,0.6731376993037201,0.9381411396634792,0.29769001082541,0.1031496108020553,0.9477440491651407,0.3582301024442781,0.05342719900995696,-0.4096157917355751,0.7099236138234701,665.6410256410256,801.4285714285714,801.8315018315019,271.1721611721612,514.1391941391942,-0.450684,0.084595,0.880249,1.136475,-3.581390,-0.351410,1,1,1,1,1,70.000000
2023-08-28 18:19:56.931,,,,,,,,,,,,,,,,,,,,,,,,,,,,,,,,,,,,,,/muse/elements/blink
2023-08-28 18:19:57.788,0.55648787919829,0.7984478708581821,0.3613671117936398,1.191992350069891,0.5847589408338487,0.5131751396088774,0.2183517161599757,0.9044271290228733,0.8204347221616688,0.1703635605572985,0.3596965515864791,0.6731376993037201,1.008159958655249,0.3881496374551914,0.2990679312620411,0.9477440491651407,0.477966796267409,0.1469781986383092,0.05909343067304147,0.7099236138234701,656.3736263736264,794.1758241758242,790.952380952381,221.6117216117216,477.8754578754579,-0.457092,0.066772,0.878662,2.220612,-3.648682,-1.600037,1,1,1,1,1,70.000000
2023-08-28 18:19:58.252,,,,,,,,,,,,,,,,,,,,,,,,,,,,,,,,,,,,,,/muse/elements/blink
2023-08-28 18:19:58.691,,,,,,,,,,,,,,,,,,,,,,,,,,,,,,,,,,,,,,/muse/elements/blink
2023-08-28 18:19:58.789,0.8533352907880487,0.159578733430099,0.13992963516314,0.9423694928506827,0.8760562380159692,0.01131840903893039,0.04873266087243758,1.067860203149209,0.6695055355205909,0.29813164441857,0.4139531686843647,1.03115365768437,0.573853163198946,0.4620097106980285,0.3933122253351418,1.011980238689899,0.6228285943811886,0.2854478559670366,0.1388459189355458,0.839639590874792,696.2637362637363,797.8021978021978,805.8608058608058,375.9340659340659,653.956043956044,-0.450378,0.070374,0.878235,1.973877,-3.424377,-0.957031,1,1,1,1,1,70.000000
2023-08-28 18:19:58.868,,,,,,,,,,,,,,,,,,,,,,,,,,,,,,,,,,,,,,/muse/elements/blink
2023-08-28 18:19:59.377,,,,,,,,,,,,,,,,,,,,,,,,,,,,,,,,,,,,,,/muse/elements/blink
2023-08-28 18:19:59.788,0.8724489139995043,0.7946064677178042,-0.1158748151520692,0.9423694928506827,0.890032948638388,0.5150628026494694,0.02777297750444494,1.067860203149209,0.6496270987892293,0.515795120117035,0.2579683062785306,1.03115365768437,0.505153046775063,0.5667046730547239,0.1155009309601915,1.011980238689899,0.6276987165540102,0.1367730723433287,-0.2294901269072059,0.839639590874792,676.9230769230769,802.6373626373627,798.2051282051282,259.4871794871795,501.6483516483516,-0.450073,0.051697,0.877258,2.153320,-3.155212,-0.171967,1,1,1,1,1,70.000000
2023-08-28 18:20:00.212,,,,,,,,,,,,,,,,,,,,,,,,,,,,,,,,,,,,,,/muse/elements/blink
2023-08-28 18:20:00.669,,,,,,,,,,,,,,,,,,,,,,,,,,,,,,,,,,,,,,/muse/elements/blink
2023-08-28 18:20:00.788,0.8724489139995043,0.5985583678689186,0.2358716801118383,0.9423694928506827,0.890032948638388,0.4425327243521587,0.247462420417987,1.067860203149209,0.6496270987892293,0.350091810124852,0.4184491822357732,1.03115365768437,0.505153046775063,0.406066676235491,0.1400815819695078,1.011980238689899,0.6276987165540102,-0.2487231898633006,-0.373510832753515,0.839639590874792,806.2637362637363,818.3516483516484,796.1904761904763,537.9120879120879,667.6556776556777,-0.623352,-0.039429,0.760864,6.130981,-21.077118,-3.521576,1,1,1,1,1,85.000000
2023-08-28 18:20:00.998,,,,,,,,,,,,,,,,,,,,,,,,,,,,,,,,,,,,,,/muse/elements/blink
2023-08-28 18:20:01.198,,,,,,,,,,,,,,,,,,,,,,,,,,,,,,,,,,,,,,/muse/elements/blink
2023-08-28 18:20:01.614,,,,,,,,,,,,,,,,,,,,,,,,,,,,,,,,,,,,,,/muse/elements/blink
2023-08-28 18:20:01.788,0.8724489139995043,1.105681908819479,0.6520559155140712,0.9423694928506827,0.890032948638388,0.7756375306750362,0.3814600646942901,1.067860203149209,0.6496270987892293,0.007272352346679253,0.4498293201453884,1.03115365768437,0.505153046775063,0.1295516707508765,0.1152643456572168,1.011980238689899,0.6276987165540102,0.1172441997113821,0.004724036092885064,0.839639590874792,707.948717948718,801.025641025641,786.9230769230769,417.8388278388279,709.9633699633699,-0.350891,-0.172607,0.915649,6.833801,-13.592834,2.579498,1,2,1,1,2,85.000000
2023-08-28 18:20:02.051,,,,,,,,,,,,,,,,,,,,,,,,,,,,,,,,,,,,,,/muse/elements/jaw_clench
2023-08-28 18:20:02.422,,,,,,,,,,,,,,,,,,,,,,,,,,,,,,,,,,,,,,/muse/elements/blink
2023-08-28 18:20:02.749,,,,,,,,,,,,,,,,,,,,,,,,,,,,,,,,,,,,,,/muse/elements/blink
2023-08-28 18:20:02.788,0.8724489139995043,1.046965996515571,0.6048201741583951,0.9423694928506827,0.890032948638388,0.7160476558522306,0.1888430375201205,1.067860203149209,0.6496270987892293,0.03358896899224146,0.3920469019678207,1.03115365768437,0.505153046775063,0.1251618285395137,0.6817528338908027,1.011980238689899,0.6276987165540102,0.08907993040680824,0.5332120387008003,0.839639590874792,642.2710622710623,786.5201465201466,793.3699633699634,48.75457875457876,492.7838827838828,-0.387329,-0.125061,0.903564,6.788940,-12.538605,0.852356,1,2,1,1,2,85.000000
2023-08-28 18:20:03.444,,,,,,,,,,,,,,,,,,,,,,,,,,,,,,,,,,,,,,/muse/elements/blink
2023-08-28 18:20:03.641,,,,,,,,,,,,,,,,,,,,,,,,,,,,,,,,,,,,,,/muse/elements/blink
2023-08-28 18:20:03.788,0.8724489139995043,0.9968506669554962,-0.1578652251927853,0.9423694928506827,0.890032948638388,0.7049122248518291,0.09480756967436613,1.067860203149209,0.6496270987892293,-0.05656166291113537,0.2530994076940866,1.03115365768437,0.505153046775063,0.1267507923225556,0.8896075892373277,1.011980238689899,0.6276987165540102,0.05952616098937461,0.7832422524882435,0.839639590874792,709.9633699633699,790.1465201465202,812.3076923076924,284.4688644688645,511.7216117216117,-0.398621,0.009216,0.919128,1.846771,4.246826,2.265472,1,2,1,1,2,85.000000
2023-08-28 18:20:04.254,,,,,,,,,,,,,,,,,,,,,,,,,,,,,,,,,,,,,,/muse/elements/blink
2023-08-28 18:20:04.254,,,,,,,,,,,,,,,,,,,,,,,,,,,,,,,,,,,,,,/muse/elements/jaw_clench
2023-08-28 18:20:04.495,,,,,,,,,,,,,,,,,,,,,,,,,,,,,,,,,,,,,,/muse/elements/jaw_clench
2023-08-28 18:20:04.670,,,,,,,,,,,,,,,,,,,,,,,,,,,,,,,,,,,,,,/muse/elements/jaw_clench
2023-08-28 18:20:04.780,,,,,,,,,,,,,,,,,,,,,,,,,,,,,,,,,,,,,,/muse/elements/blink
2023-08-28 18:20:04.791,0.8724489139995043,0.9968506669554962,0.1345947696245589,0.9423694928506827,0.890032948638388,0.7049122248518291,-0.005775899717445737,1.067860203149209,0.6496270987892293,-0.05656166291113537,0.5954258444255632,1.03115365768437,0.505153046775063,0.1267507923225556,0.7838549535166968,1.011980238689899,0.6276987165540102,0.05952616098937461,0.6928073048878723,0.839639590874792,663.6263736263736,786.9230769230769,819.96336996337,155.1282051282051,599.9633699633699,-0.426941,-0.008972,0.895569,1.487885,-2.527161,0.231781,1,2,1,1,2,85.000000
2023-08-28 18:20:05.366,,,,,,,,,,,,,,,,,,,,,,,,,,,,,,,,,,,,,,/muse/elements/jaw_clench
2023-08-28 18:20:05.453,,,,,,,,,,,,,,,,,,,,,,,,,,,,,,,,,,,,,,/muse/elements/blink
2023-08-28 18:20:05.788,0.3764181145468661,0.09507414710764873,-0.0008453241048277879,0.9423694928506827,0.7469619219423277,0.08498705793260343,0.1893988915374848,1.067860203149209,0.870027951017739,0.2698976237270539,0.6132391594761237,1.03115365768437,1.195739471024362,0.6642857381863968,1.00132748832751,1.011980238689899,0.9557179725378139,0.5693230948520582,0.8754006092260138,0.839639590874792,685.7875457875458,797.8021978021978,806.2637362637363,160.7692307692308,352.1611721611721,-0.440247,-0.008240,0.883911,1.540222,-4.314117,0.500946,1,1,1,1,1,85.000000
2023-08-28 18:20:06.086,,,,,,,,,,,,,,,,,,,,,,,,,,,,,,,,,,,,,,/muse/elements/blink
2023-08-28 18:20:06.415,,,,,,,,,,,,,,,,,,,,,,,,,,,,,,,,,,,,,,/muse/elements/blink
2023-08-28 18:20:06.701,,,,,,,,,,,,,,,,,,,,,,,,,,,,,,,,,,,,,,/muse/elements/blink
2023-08-28 18:20:06.798,0.7543250688490979,0.1441047191473736,-0.2203309138996243,0.9423694928506827,0.7617436740344545,0.1365275747555427,0.1064594075876622,1.067860203149209,1.236345079124693,0.5094668070489162,0.3919614177347979,1.03115365768437,1.074705385386972,0.4861521636303532,0.7253218244544598,1.011980238689899,0.9098008685516492,0.4406935418953037,0.5866921949264393,0.839639590874792,675.7142857142858,793.7728937728938,803.040293040293,191.7948717948718,523.8095238095239,-0.437073,0.001587,0.890747,2.228088,-4.314117,-0.426178,1,1,1,1,1,85.000000
