TimeStamp,Delta_TP9,Delta_AF7,Delta_AF8,Delta_TP10,Theta_TP9,Theta_AF7,Theta_AF8,Theta_TP10,Alpha_TP9,Alpha_AF7,Alpha_AF8,Alpha_TP10,Beta_TP9,Beta_AF7,Beta_AF8,Beta_TP10,Gamma_TP9,Gamma_AF7,Gamma_AF8,Gamma_TP10,RAW_TP9,RAW_AF7,RAW_AF8,RAW_TP10,AUX_RIGHT,Accelerometer_X,Accelerometer_Y,Accelerometer_Z,Gyro_X,Gyro_Y,Gyro_Z,HeadBandOn,HSI_TP9,HSI_AF7,HSI_AF8,HSI_TP10,Battery,Elements
2023-09-28 17:25:51.536,,,,,,,,,,,,,,,,,,,,,,,,,,,,,,,,,,,,,,/muse/event/connected Muse-D424
2023-09-28 17:25:51.597,,,,,,,,,,,,,,,,,,,,,,,,,,,,,,,,,,,,,,/muse/elements/jaw_clench
2023-09-28 17:25:51.607,,,,,,,,,,,,,,,,,,,,,,,,,,,,,,,,,,,,,,/muse/elements/jaw_clench
2023-09-28 17:25:51.610,,,,,,,,,,,,,,,,,,,,,,,,,,,,,,,,,,,,,,/muse/elements/jaw_clench
2023-09-28 17:25:52.192,,,,,,,,,,,,,,,,,,,,,,,,,,,,,,,,,,,,,,/muse/elements/jaw_clench
2023-09-28 17:25:52.538,-0.3479045557406262,0.5847873723395353,-0.05357885486434981,0.7729393612948452,0.4954640885712241,0.7609425281749328,0.1661764002147218,0.505980818180957,0.5233537203993288,0.6625827039645255,0.9646883834886895,0.5800644267260097,1.185140268320666,1.42484857640323,1.34276334173204,1.270098568011125,1.101308318375413,1.322308638683452,1.350895391058919,1.17379093963424,945.6776556776557,792.5641025641025,813.919413919414,791.3553113553114,749.4505494505495,-0.520325,0.054932,0.844604,-0.650482,-2.826233,1.330872,1,1,1,1,1,20.000000
2023-09-28 17:25:53.089,,,,,,,,,,,,,,,,,,,,,,,,,,,,,,,,,,,,,,/muse/elements/blink
2023-09-28 17:25:53.180,,,,,,,,,,,,,,,,,,,,,,,,,,,,,,,,,,,,,,/muse/elements/jaw_clench
2023-09-28 17:25:53.537,-0.3479045557406262,0.5847873723395353,0.07437564338902544,0.8011926247421657,0.4954640885712241,0.7609425281749328,0.1336726473875478,0.4279685710642874,0.5233537203993288,0.6625827039645255,0.7902399298555058,0.6956119598841544,1.185140268320666,1.42484857640323,1.215847046763742,1.425230719267724,1.101308318375413,1.322308638683452,1.312331129074665,1.174124223068769,764.3589743589744,820.3663003663004,774.8351648351648,767.985347985348,701.5018315018315,-0.548279,0.058167,0.818970,-0.852356,2.826233,2.198181,1,1,1,1,1,20.000000
2023-09-28 17:25:53.674,,,,,,,,,,,,,,,,,,,,,,,,,,,,,,,,,,,,,,/muse/elements/jaw_clench
2023-09-28 17:25:53.809,,,,,,,,,,,,,,,,,,,,,,,,,,,,,,,,,,,,,,/muse/elements/blink
2023-09-28 17:25:54.537,-0.3479045557406262,0.5847873723395353,0.09834039170524936,0.7570444693062817,0.4954640885712241,0.7609425281749328,0.1717999265985924,0.1173876580635022,0.5233537203993288,0.6625827039645255,0.7886836298288998,0.6764717541498009,1.185140268320666,1.42484857640323,1.2022418333024,1.565937424205881,1.101308318375413,1.322308638683452,1.29393429742722,1.256582354351848,1158.021978021978,838.0952380952381,819.5604395604396,817.1428571428571,728.0952380952381,-0.557312,0.047363,0.835144,-0.014954,-1.016846,2.340240,1,1,1,1,1,20.000000
2023-09-28 17:25:54.901,,,,,,,,,,,,,,,,,,,,,,,,,,,,,,,,,,,,,,/muse/elements/blink
2023-09-28 17:25:55.540,-0.3479045557406262,0.5847873723395353,0.09834039170524936,0.7570444693062817,0.4954640885712241,0.7609425281749328,0.1717999265985924,0.1173876580635022,0.5233537203993288,0.6625827039645255,0.7886836298288998,0.6764717541498009,1.185140268320666,1.42484857640323,1.2022418333024,1.565937424205881,1.101308318375413,1.322308638683452,1.29393429742722,1.256582354351848,990.4029304029305,773.6263736263736,821.978021978022,787.7289377289378,1012.967032967033,-0.554138,0.068420,0.820190,1.472931,-4.344025,0.613098,1,2,1,1,2,20.000000
2023-09-28 17:25:56.537,-0.3479045557406262,0.5847873723395353,-0.4622830211144516,0.3778960395708884,0.4954640885712241,0.7609425281749328,-0.2596090947362479,0.6176751920095814,0.5233537203993288,0.6625827039645255,0.558679797366102,0.7623934853328559,1.185140268320666,1.42484857640323,1.491835387212335,1.082492027587727,1.101308318375413,1.322308638683452,1.512781855541692,1.01869731459693,920.6959706959707,728.901098901099,784.9084249084249,815.5311355311355,828.4249084249085,-0.548645,0.074097,0.824890,1.742096,-4.104767,-0.485992,1,1,1,1,1,20.000000
2023-09-28 17:25:56.738,,,,,,,,,,,,,,,,,,,,,,,,,,,,,,,,,,,,,,/muse/elements/jaw_clench
2023-09-28 17:25:57.537,-0.3479045557406262,0.5847873723395353,-0.4056307817772286,0.853610017575222,0.4954640885712241,0.7609425281749328,-0.2535511672753716,0.7554249224826504,0.5233537203993288,0.6625827039645255,0.5325604094997762,1.071388415898708,1.185140268320666,1.42484857640323,1.422898521519769,1.21168585024345,1.101308318375413,1.322308638683452,1.469564246217978,0.917691374157822,1248.278388278388,793.7728937728938,800.6227106227107,832.0512820512821,846.1538461538462,-0.539490,0.077026,0.828857,2.115936,-4.351501,0.590668,1,1,1,1,1,20.000000
2023-09-28 17:25:57.958,,,,,,,,,,,,,,,,,,,,,,,,,,,,,,,,,,,,,,/muse/elements/jaw_clench
2023-09-28 17:25:58.539,0.9103087561445513,0.5847873723395353,-0.375384024664503,0.9712802815136455,0.7566786788359893,0.7609425281749328,-0.3146276296010206,0.6579959595691506,0.8584610075696635,0.6625827039645255,0.4894812719819963,1.059277416018916,1.285248476673965,1.42484857640323,1.359316891715459,1.329989538907162,1.048874673132314,1.322308638683452,1.419365117093212,0.8410705368343666,1191.465201465202,788.9377289377289,784.5054945054945,810.6959706959707,848.1684981684982,-0.548340,0.073669,0.820618,2.071075,-3.357086,-0.418701,1,1,1,1,1,20.000000
2023-09-28 17:25:58.887,,,,,,,,,,,,,,,,,,,,,,,,,,,,,,,,,,,,,,/muse/elements/jaw_clench
2023-09-28 17:25:59.069,,,,,,,,,,,,,,,,,,,,,,,,,,,,,,,,,,,,,,/muse/elements/jaw_clench
2023-09-28 17:25:59.356,,,,,,,,,,,,,,,,,,,,,,,,,,,,,,,,,,,,,,/muse/elements/jaw_clench
2023-09-28 17:25:59.539,0.9863179079522114,0.5847873723395353,-0.375384024664503,1.021978646714783,0.7094901308013317,0.7609425281749328,-0.3146276296010206,0.5040795778976415,0.8584610075696635,0.6625827039645255,0.4894812719819963,0.5557232620762333,1.256825625415194,1.42484857640323,1.359316891715459,1.343980091672662,1.061813867245035,1.322308638683452,1.419365117093212,0.8097368174661954,1274.065934065934,771.2087912087912,803.040293040293,829.2307692307693,1072.600732600733,-0.527527,0.073242,0.829224,1.772003,-4.598236,-1.054230,1,1,4,1,1,20.000000
2023-09-28 17:26:00.184,,,,,,,,,,,,,,,,,,,,,,,,,,,,,,,,,,,,,,/muse/elements/jaw_clench
2023-09-28 17:26:00.537,0.9863179079522114,0.5847873723395353,-0.375384024664503,1.019119391070225,0.7094901308013317,0.7609425281749328,-0.3146276296010206,0.4812606753569794,0.8584610075696635,0.6625827039645255,0.4894812719819963,0.5055342911259848,1.256825625415194,1.42484857640323,1.359316891715459,1.322472742874944,1.061813867245035,1.322308638683452,1.419365117093212,0.7665981073755865,1278.095238095238,794.1758241758242,788.9377289377289,788.9377289377289,855.8241758241759,-0.538391,0.064270,0.824341,1.966400,-3.962708,-0.605621,1,1,4,1,1,20.000000
2023-09-28 17:26:00.893,,,,,,,,,,,,,,,,,,,,,,,,,,,,,,,,,,,,,,/muse/elements/jaw_clench
2023-09-28 17:26:01.091,,,,,,,,,,,,,,,,,,,,,,,,,,,,,,,,,,,,,,/muse/elements/blink
2023-09-28 17:26:01.091,,,,,,,,,,,,,,,,,,,,,,,,,,,,,,,,,,,,,,/muse/elements/jaw_clench
2023-09-28 17:26:01.537,0.9863179079522114,0.5847873723395353,-0.375384024664503,0.5903483381266603,0.7094901308013317,0.7609425281749328,-0.3146276296010206,0.2800127949805424,0.8584610075696635,0.6625827039645255,0.4894812719819963,0.576520587020722,1.256825625415194,1.42484857640323,1.359316891715459,1.04608738377845,1.061813867245035,1.322308638683452,1.419365117093212,0.7307512378763954,1301.868131868132,741.3919413919414,753.0769230769231,815.5311355311355,881.6117216117217,-0.560974,0.057800,0.819153,1.846771,-4.710388,-0.358887,1,1,4,1,1,20.000000
2023-09-28 17:26:01.928,,,,,,,,,,,,,,,,,,,,,,,,,,,,,,,,,,,,,,/muse/elements/jaw_clench
2023-09-28 17:26:02.537,0.9863179079522114,0.5847873723395353,-0.375384024664503,0.5574342186575457,0.7094901308013317,0.7609425281749328,-0.3146276296010206,0.2244407686224276,0.8584610075696635,0.6625827039645255,0.4894812719819963,0.5640810961329155,1.256825625415194,1.42484857640323,1.359316891715459,1.076594392997815,1.061813867245035,1.322308638683452,1.419365117093212,0.7415391548190032,1035.934065934066,842.5274725274726,804.2490842490843,800.2197802197802,821.5750915750916,-0.546326,0.055725,0.820801,1.682281,-3.521576,-1.869202,1,1,1,1,1,20.000000
2023-09-28 17:26:03.537,0.9863179079522114,0.5847873723395353,-0.375384024664503,0.5378693888608095,0.7094901308013317,0.7609425281749328,-0.3146276296010206,0.3079788425569248,0.8584610075696635,0.6625827039645255,0.4894812719819963,0.8436303807708806,1.256825625415194,1.42484857640323,1.359316891715459,1.136819626516547,1.061813867245035,1.322308638683452,1.419365117093212,0.9358374953471014,1091.135531135531,761.1355311355312,788.5347985347986,804.6520146520147,760.3296703296703,-0.543701,0.065247,0.824097,1.906586,-3.745880,-0.882263,1,1,1,1,1,20.000000
2023-09-28 17:26:03.936,,,,,,,,,,,,,,,,,,,,,,,,,,,,,,,,,,,,,,/muse/elements/jaw_clench
2023-09-28 17:26:04.225,,,,,,,,,,,,,,,,,,,,,,,,,,,,,,,,,,,,,,/muse/elements/blink
2023-09-28 17:26:04.359,,,,,,,,,,,,,,,,,,,,,,,,,,,,,,,,,,,,,,/muse/elements/jaw_clench
2023-09-28 17:26:04.547,0.7012785652265038,0.5847873723395353,-0.375384024664503,0.5897735955237886,0.6612005114314745,0.7609425281749328,-0.3146276296010206,0.207211572794886,1.138684895466837,0.6625827039645255,0.4894812719819963,0.6662061544183395,1.220241543887599,1.42484857640323,1.359316891715459,1.196229150014899,1.153552330239884,1.322308638683452,1.419365117093212,0.647542613558924,680.952380952381,770.8058608058608,793.3699633699634,805.0549450549451,682.1611721611722,-0.535339,0.038818,0.831360,1.084137,-5.839386,-0.889740,1,1,1,1,1,20.000000
2023-09-28 17:26:05.452,,,,,,,,,,,,,,,,,,,,,,,,,,,,,,,,,,,,,,/muse/elements/jaw_clench
2023-09-28 17:26:05.537,0.7012785652265038,0.5847873723395353,0.2268561883436028,0.5659574275462383,0.6612005114314745,0.7609425281749328,0.2748358081075289,0.1556237190661479,1.138684895466837,0.6625827039645255,0.7397911409881711,0.3193621421935395,1.220241543887599,1.42484857640323,1.198184554926928,1.13425849114772,1.153552330239884,1.322308638683452,1.576530170207,0.4817632015457584,1191.062271062271,775.2380952380953,792.967032967033,820.7692307692308,823.5897435897436,-0.529846,0.057495,0.832520,2.123413,-2.257996,-0.441132,1,1,1,1,1,20.000000
2023-09-28 17:26:06.053,,,,,,,,,,,,,,,,,,,,,,,,,,,,,,,,,,,,,,/muse/elements/jaw_clench
2023-09-28 17:26:06.537,0.2764052697027367,0.5847873723395353,-0.1757768089640044,0.1063701828971749,0.7976293811094091,0.7609425281749328,0.1553809099633279,0.4069069850577876,0.812432562535703,0.6625827039645255,0.7100640573955067,0.5483475296344756,1.037045072695697,1.42484857640323,1.602934460575479,0.9750185543715116,0.8551753712440239,1.322308638683452,1.200313895189052,0.8562568630840292,734.5421245421246,800.6227106227107,778.0586080586081,800.2197802197802,552.4175824175825,-0.500793,0.063232,0.851501,1.704712,-3.813171,-0.538330,1,1,1,1,1,20.000000
2023-09-28 17:26:07.076,,,,,,,,,,,,,,,,,,,,,,,,,,,,,,,,,,,,,,/muse/elements/jaw_clench
2023-09-28 17:26:07.537,0.4449097011777188,0.5847873723395353,-0.006169849948814746,0.1237368771327229,0.8322907236760754,0.7609425281749328,0.1516922629819561,0.3691660714000595,0.8906955120987127,0.6625827039645255,0.7067490639678986,0.6148033734088986,1.119613294170289,1.42484857640323,1.585907765978644,1.078438448303163,1.021257728523604,1.322308638683452,1.273193011491563,0.9352174560863002,793.3699633699634,838.901098901099,784.5054945054945,782.893772893773,643.0769230769231,-0.509155,0.048950,0.855835,2.130890,-3.244934,-0.433655,1,1,1,1,1,20.000000
2023-09-28 17:26:08.537,0.2327992401413377,0.5847873723395353,0.07120995733651084,0.3457607154071131,0.5415668605410867,0.7609425281749328,0.0338944640556589,0.2177173361619358,0.7289099047247789,0.6625827039645255,0.4540684179145439,0.6324228386277196,1.160332788148613,1.42484857640323,1.513978501508366,1.003381360980771,1.055093994021192,1.322308638683452,1.252451171977043,0.8826733869411801,603.5897435897436,774.0293040293041,786.1172161172161,804.6520146520147,683.7728937728938,-0.510132,0.050415,0.845520,2.078552,-3.274841,0.463562,1,1,1,1,1,20.000000
2023-09-28 17:26:09.538,0.1808462665968978,0.5847873723395353,-0.01136251407330229,0.5917198121751596,0.587432141139843,0.7609425281749328,-0.02129559880864957,0.5472681352012437,0.553191913882578,0.6625827039645255,0.5525227154075409,0.588636817046713,1.12821541544539,1.42484857640323,1.335104063352513,0.9549277830347037,1.053070789022553,1.322308638683452,1.169149420664916,0.9302515457302315,595.1282051282052,800.2197802197802,796.996336996337,791.7582417582418,641.4652014652015,-0.509583,0.047180,0.846069,1.368256,-2.616882,-0.829926,1,1,1,1,1,20.000000
2023-09-28 17:26:10.243,,,,,,,,,,,,,,,,,,,,,,,,,,,,,,,,,,,,,,/muse/elements/blink
2023-09-28 17:26:10.312,,,,,,,,,,,,,,,,,,,,,,,,,,,,,,,,,,,,,,/muse/elements/jaw_clench
2023-09-28 17:26:10.541,0.2340392981611354,-0.2833257502596563,-0.1826777014224644,0.6146810659934341,0.6801006206163364,-0.01144981837253043,-0.02164837109828328,0.5891417288469566,0.5610127921606568,0.7702660240557061,0.726433648947618,0.4409608856386814,0.962089454052222,1.857946831564074,1.378226365105376,0.9832298195833391,1.001883892777153,1.800548084144123,1.090015619350196,0.9776733847275074,616.080586080586,780.8791208791209,777.6556776556777,796.996336996337,664.4322344322344,-0.518433,0.044983,0.842041,2.071075,-3.723450,-1.001892,1,1,1,1,1,20.000000
2023-09-28 17:26:11.537,0.2227918520573378,-0.2833257502596563,-0.008069747977044977,0.5124909786414464,0.4886061839209747,-0.01144981837253043,-0.01108744695091721,0.2789285868359093,0.4948472386056983,0.7702660240557061,0.6359871629963795,0.1945036085215009,1.022104758111888,1.857946831564074,1.370956365663345,1.003799889399099,0.9560734238593395,1.800548084144123,1.073907110147416,0.9650717269698886,694.6520146520147,807.8754578754579,796.996336996337,811.9047619047619,699.0842490842491,-0.517029,0.045654,0.842712,1.786957,-3.573914,-0.074768,1,1,1,1,1,20.000000
2023-09-28 17:26:12.537,0.2227918520573378,-0.2833257502596563,-0.008069747977044977,0.9616930744467942,0.4886061839209747,-0.01144981837253043,-0.01108744695091721,0.4688974764806162,0.4948472386056983,0.7702660240557061,0.6359871629963795,0.6742861988603718,1.022104758111888,1.857946831564074,1.370956365663345,1.090675816254837,0.9560734238593395,1.800548084144123,1.073907110147416,0.608586380703257,336.8498168498169,761.941391941392,777.2527472527473,775.6410256410256,612.0512820512821,-0.521423,0.049866,0.844299,2.138367,-3.693542,-0.740204,1,1,1,1,1,20.000000
2023-09-28 17:26:13.520,,,,,,,,,,,,,,,,,,,,,,,,,,,,,,,,,,,,,,/muse/elements/blink
2023-09-28 17:26:13.537,0.2227918520573378,-0.2833257502596563,-0.008069747977044977,0.9723405368895696,0.4886061839209747,-0.01144981837253043,-0.01108744695091721,0.2162700855790565,0.4948472386056983,0.7702660240557061,0.6359871629963795,0.5805500187353081,1.022104758111888,1.857946831564074,1.370956365663345,1.115049218243981,0.9560734238593395,1.800548084144123,1.073907110147416,0.6042760221201929,354.1758241758242,788.1318681318681,804.6520146520147,769.1941391941392,529.8534798534798,-0.515991,0.046448,0.847839,1.831818,-3.843079,-0.000000,1,1,1,1,1,20.000000
2023-09-28 17:26:14.537,0.2227918520573378,-0.2833257502596563,0.2555100202844319,0.9484672474471857,0.4886061839209747,-0.01144981837253043,0.1824817668651507,0.1886644039172219,0.4948472386056983,0.7702660240557061,0.7048421605706369,0.5429841259652466,1.022104758111888,1.857946831564074,1.524197839298478,1.12933790525866,0.9560734238593395,1.800548084144123,1.094612788543013,0.6465767015705977,460.1465201465202,747.4358974358975,819.1575091575091,777.6556776556777,783.2967032967033,-0.512878,0.041626,0.854797,1.629944,-4.373932,-0.276642,1,1,1,1,1,20.000000
2023-09-28 17:26:15.429,,,,,,,,,,,,,,,,,,,,,,,,,,,,,,,,,,,,,,/muse/elements/blink
2023-09-28 17:26:15.537,0.2227918520573378,-0.2833257502596563,0.1218344216585717,0.9484672474471857,0.4886061839209747,-0.01144981837253043,0.1213622360082889,0.1886644039172219,0.4948472386056983,0.7702660240557061,0.5708435458265371,0.5429841259652466,1.022104758111888,1.857946831564074,1.511182133572247,1.12933790525866,0.9560734238593395,1.800548084144123,1.131416098817238,0.6465767015705977,386.4102564102564,799.0109890109891,756.3003663003664,787.3260073260074,501.2454212454213,-0.500549,0.047607,0.847229,2.130890,-2.572021,-1.570129,1,2,1,1,2,20.000000
2023-09-28 17:26:16.537,0.2227918520573378,-0.2833257502596563,0.008166698867626224,0.9484672474471857,0.4886061839209747,-0.01144981837253043,0.1168555396788527,0.1886644039172219,0.4948472386056983,0.7702660240557061,0.5823111150530179,0.5429841259652466,1.022104758111888,1.857946831564074,1.457505464376807,1.12933790525866,0.9560734238593395,1.800548084144123,1.289333234967256,0.6465767015705977,417.8388278388279,828.021978021978,776.8498168498169,808.2783882783883,639.047619047619,-0.499634,0.044128,0.853760,2.317810,-2.915955,-1.614990,1,2,1,1,2,20.000000
2023-09-28 17:26:16.551,,,,,,,,,,,,,,,,,,,,,,,,,,,,,,,,,,,,,,/muse/elements/blink
2023-09-28 17:26:17.537,0.2227918520573378,-0.2833257502596563,0.07801898808459609,0.9484672474471857,0.4886061839209747,-0.01144981837253043,0.08017104585261925,0.1886644039172219,0.4948472386056983,0.7702660240557061,0.5649530141361355,0.5429841259652466,1.022104758111888,1.857946831564074,1.524040517890411,1.12933790525866,0.9560734238593395,1.800548084144123,1.287231045888507,0.6465767015705977,347.3260073260074,840.9157509157509,786.5201465201466,782.4908424908425,726.8864468864469,-0.501465,0.045166,0.853210,2.205658,-3.798218,-0.246735,1,2,1,1,2,20.000000
2023-09-28 17:26:18.545,0.2363605946450444,-0.2833257502596563,0.00683766261237144,0.1851695296134499,0.6098235106924008,-0.01144981837253043,0.01637483592331545,0.16360531518105,1.008929953735559,0.7702660240557061,0.4508838076028683,0.6510811886322069,1.205195435493457,1.857946831564074,1.339176686043575,1.069069906237027,1.006183808175944,1.800548084144123,1.302994829150703,0.826268058102927,705.1282051282052,738.5714285714286,780.8791208791209,794.5787545787546,714.7985347985348,-0.496033,0.045532,0.856018,1.375732,-2.893524,-1.128998,1,1,1,1,1,20.000000
2023-09-28 17:26:19.536,0.3071449997970981,-0.4311605284379457,-0.04602148625134575,0.4207497150483162,0.4490481122528982,-0.5023343813170904,-0.1071599303546486,0.4823630492518864,1.023760314359915,0.858846269982086,0.3068839691144346,0.7122774493728034,0.9247133195964382,1.606523758150498,1.355814561292456,1.048254052982928,0.920114499080729,1.608828255822222,1.169781687115891,0.7931239795881465,600.7692307692308,785.7142857142858,796.1904761904763,801.8315018315019,1036.739926739927,-0.499756,0.037964,0.852783,2.325287,-3.424377,-1.106567,1,1,1,1,1,20.000000
2023-09-28 17:26:20.537,0.4752921478884149,-0.2258521947874659,-0.201953814156369,0.5023723723240864,0.7676948874898095,-0.1847213671470986,-0.0412568824580883,0.3530350334855382,1.052345787589505,0.6171753767054124,0.5845789186558021,0.4982481266549267,1.049076049672522,1.678221254261015,1.524951230971066,1.029101010132322,1.085076611630625,1.419970625816444,1.175637379316308,0.724586963273589,533.8827838827839,821.5750915750916,793.3699633699634,775.6410256410256,608.4249084249085,-0.503784,0.044556,0.849304,2.310333,-3.588867,-0.418701,1,1,1,1,1,20.000000
2023-09-28 17:26:21.537,0.5572037084110822,-0.3121081835637882,-0.1410102199616887,0.3381592746690956,0.4382012058147605,0.04199760961365677,0.1149890853205035,0.2542400118249223,1.044320271267505,0.6664154997937944,0.5301217901083037,0.7758238352159689,1.051787979425069,1.689748538376344,1.474109690379299,1.129976022258596,0.8838268402237216,1.491674510423438,1.159319590593962,0.6854800944290628,1025.860805860806,761.941391941392,820.7692307692308,805.8608058608058,843.3333333333334,-0.500854,0.039978,0.853210,1.831818,-4.052429,0.179443,1,1,1,1,1,20.000000
2023-09-28 17:26:22.318,,,,,,,,,,,,,,,,,,,,,,,,,,,,,,,,,,,,,,/muse/elements/jaw_clench
2023-09-28 17:26:22.407,,,,,,,,,,,,,,,,,,,,,,,,,,,,,,,,,,,,,,/muse/elements/blink
2023-09-28 17:26:22.537,0.6001491925967235,-0.313548338993745,-0.1189520932619028,0.6374405020338437,0.5254742381327105,0.06544506014895245,-0.307286267157616,0.1372762942576675,0.7822649088161489,0.5083459708522907,0.2898858157411571,0.8893006591815182,1.024065146031643,1.674439298418843,1.414574434211687,1.015307378531074,0.7324094465565469,1.507068293386599,1.281783635014455,0.7041887938909972,975.0915750915751,799.0109890109891,795.7875457875458,815.5311355311355,774.4322344322345,-0.482239,0.053467,0.859253,2.063599,-4.239349,-0.157013,1,1,1,1,1,20.000000
2023-09-28 17:26:23.548,0.6639846633192273,-0.313548338993745,0.2445834232475319,0.5975141485339707,0.5941334743898584,0.06544506014895245,0.02134930066858027,-0.2072880967439794,0.7731065741062775,0.5083459708522907,0.8084837311086623,0.7958671510996894,1.041306790491514,1.674439298418843,1.387604719944768,1.106591836341449,0.7895037168771517,1.507068293386599,1.313114249001369,0.6977316815498362,1247.069597069597,786.5201465201466,795.3846153846154,825.2014652014652,1018.205128205128,-0.499207,0.043091,0.859985,1.689758,-2.190704,-0.104675,1,1,1,1,1,20.000000
2023-09-28 17:26:24.536,0.4589859125049459,-0.313548338993745,0.49567712596465,0.5045226187929226,0.6423218463186932,0.06544506014895245,0.5020902597754859,0.506373953777416,0.6114111158043107,0.5083459708522907,0.9608975646004034,0.6130817833577066,1.032134423581636,1.674439298418843,1.287832979164756,1.041791707320786,0.8890694493766704,1.507068293386599,1.320329495358585,0.864182552782344,1244.652014652015,823.5897435897436,814.7252747252747,821.5750915750916,874.7619047619048,-0.484558,0.043701,0.858337,1.809387,-3.319702,-0.829926,1,1,1,1,1,20.000000
2023-09-28 17:26:25.537,0.50111969388833,-0.313548338993745,-0.008291491130808874,0.1748141139204332,0.6974795606886136,0.06544506014895245,0.1816258981807864,0.448645750282369,1.074380257168866,0.5083459708522907,0.4770791799504762,0.8614743406200056,1.098527349519291,1.674439298418843,1.4562351015009,1.011363671872402,0.952199209115451,1.507068293386599,1.309914488355873,0.8521357320688094,1198.315018315018,808.6813186813187,827.2161172161173,785.7142857142858,846.959706959707,-0.491577,0.049194,0.853760,1.786957,-3.282318,-0.672913,1,1,1,1,1,20.000000
2023-09-28 17:26:26.537,0.4653384229272401,-0.313548338993745,0.1776328627233047,0.3452909293500219,0.6069788837563068,0.06544506014895245,0.2446560648088291,0.6402229310399959,1.135450036384736,0.5083459708522907,0.7143745858567578,0.9386920739913318,1.098983198675337,1.674439298418843,1.416733925706525,1.041784580556871,0.9089679338292779,1.507068293386599,1.142391725340964,0.6886768120978528,1218.461538461539,828.8278388278388,797.3992673992674,809.0842490842491,840.9157509157509,-0.511841,0.053772,0.855652,1.271057,-3.327179,2.250519,1,1,1,1,1,20.000000
2023-09-28 17:26:27.537,0.463735875914087,-0.313548338993745,0.4727524077711979,0.7028328408299622,0.6950120914460722,0.06544506014895245,0.3165702705336935,0.4727959860130128,0.8312628882511174,0.5083459708522907,0.674558326533638,0.6847247404622118,1.286320189094686,1.674439298418843,1.200706084133667,1.071563011046374,0.9642488232986949,1.507068293386599,1.186814875834853,0.7620123976539364,1237.399267399268,822.3809523809524,793.7728937728938,807.4725274725275,890.8791208791209,-0.515503,0.057312,0.847717,1.861725,-3.140259,-0.515900,1,1,1,1,1,20.000000
2023-09-28 17:26:28.418,,,,,,,,,,,,,,,,,,,,,,,,,,,,,,,,,,,,,,/muse/elements/blink
2023-09-28 17:26:28.539,0.4829615203723812,-0.01510651311605025,0.5232749845675734,0.8433721125300843,0.7244917787047931,0.0471728781335983,0.3394919472487082,0.3062445850880339,0.6422906558825571,0.5029156549676285,0.6074143632465261,0.3345655109607677,1.290644318759552,1.369360709559757,1.163294722112689,0.8114532515918492,0.981093195539405,1.472739175879738,1.16071795450104,0.7595913706169632,1266.410256410256,774.8351648351648,823.1868131868132,824.3956043956044,955.7509157509157,-0.503296,0.053894,0.855042,2.003784,-4.471130,-0.553284,1,1,1,1,1,20.000000
2023-09-28 17:26:29.537,0.4829615203723812,-0.01510651311605025,0.382979129479907,0.8433721125300843,0.7244917787047931,0.0471728781335983,0.5325073569929675,0.3062445850880339,0.6422906558825571,0.5029156549676285,0.8477009016256974,0.3345655109607677,1.290644318759552,1.369360709559757,1.278149159726678,0.8114532515918492,0.981093195539405,1.472739175879738,1.243319193762763,0.7595913706169632,1253.113553113553,768.7912087912088,788.1318681318681,801.4285714285714,713.992673992674,-0.489929,0.052490,0.861633,1.652374,-3.985138,-0.089722,1,1,1,1,1,20.000000
2023-09-28 17:26:30.536,0.3670750622609859,-0.01510651311605025,0.08484691769278965,0.505957300517512,0.6131279843679249,0.0471728781335983,0.6033276026534815,0.5923080627777986,0.9330782735031113,0.5029156549676285,1.183222692871279,0.9243369020298889,1.065938584242517,1.369360709559757,1.249942416192575,1.146145093649406,0.943705694741246,1.472739175879738,1.127685236786636,0.6939446751253915,1072.197802197802,813.919413919414,790.5494505494506,796.5934065934066,837.6923076923077,-0.492432,0.044312,0.858643,1.644897,-3.461761,-1.315918,1,1,1,1,1,20.000000
2023-09-28 17:26:31.537,0.2398347973876702,-0.01510651311605025,-0.02043443304696117,0.5293987229465335,0.8727229006814226,0.0471728781335983,0.4709173674074512,0.7290435322285975,1.134605388710082,0.5029156549676285,1.183222692871279,1.022259913994199,1.097645870147266,1.369360709559757,1.360403545827865,0.9581050327089738,0.9578673174406752,1.472739175879738,1.324422897825418,0.5930078114034774,1128.205128205128,818.3516483516484,765.5677655677656,806.6666666666667,730.9157509157509,-0.491394,0.051453,0.859192,2.108459,-4.127197,0.164490,1,1,1,1,1,20.000000
2023-09-28 17:26:32.546,0.3632329429918615,-0.01510651311605025,-0.1158875362846266,0.3523936470223694,0.9187646257098512,0.0471728781335983,0.07500158286553073,0.5958499860684857,1.059064404577096,0.5029156549676285,0.5806651605715257,0.9216208666035645,1.015637583042574,1.369360709559757,1.491694908065282,0.9215262370015671,0.9564647344034026,1.472739175879738,1.224339661738232,0.6095373408711384,1191.465201465202,783.2967032967033,812.3076923076924,816.7399267399268,858.2417582417582,-0.497925,0.045227,0.857056,1.936493,-3.394470,-0.224304,1,1,1,1,1,20.000000
2023-09-28 17:26:32.669,,,,,,,,,,,,,,,,,,,,,,,,,,,,,,,,,,,,,,/muse/elements/jaw_clench
2023-09-28 17:26:33.538,0.108030599301061,-0.01510651311605025,0.06450026105434339,0.1465394284613013,0.4298102991688303,0.0471728781335983,0.3141768459464016,0.3878348553340219,0.8843023147965142,0.5029156549676285,0.3955033252392039,0.4240990831261233,0.7899415007491917,1.369360709559757,1.428103838909599,0.846697728313165,1.035375915146097,1.472739175879738,1.123928326492901,0.8295316576703863,740.5860805860806,806.2637362637363,811.0989010989011,792.1611721611722,673.2967032967033,-0.497803,0.046692,0.851501,2.003784,-2.624359,-0.366364,1,1,1,1,1,20.000000
2023-09-28 17:26:34.536,0.3038675513853794,-0.01510651311605025,0.2141226960119052,0.3195662394257579,0.4470779599188007,0.0471728781335983,-0.06238816899656087,0.3834146063152393,0.753779361822717,0.5029156549676285,0.2402477401915432,0.5986959440751967,0.9590064185702852,1.369360709559757,1.348403346892189,1.004426202702593,1.070153354470907,1.472739175879738,1.217362791863833,0.9549274231272442,843.7362637362637,821.978021978022,850.1831501831502,811.5018315018315,950.5128205128206,-0.497681,0.054260,0.852295,1.772003,-3.529053,0.059814,1,1,1,1,1,20.000000
2023-09-28 17:26:34.597,,,,,,,,,,,,,,,,,,,,,,,,,,,,,,,,,,,,,,/muse/elements/jaw_clench
2023-09-28 17:26:35.537,0.5691695490923057,-0.01510651311605025,0.2370533394818926,0.3866432564556571,0.5241674362141735,0.0471728781335983,-0.04272643390728378,0.1285476445616448,0.5738965884503487,0.5029156549676285,0.2416720565020586,0.5836524184667361,1.111368703986271,1.369360709559757,1.369410140913764,1.114670122359027,1.176005844964559,1.472739175879738,1.258369403967893,0.9672505737204796,940.8424908424909,774.8351648351648,789.3406593406594,800.2197802197802,670.8791208791209,-0.501160,0.054504,0.855530,1.472931,-3.177643,-1.203766,1,1,1,1,1,20.000000
2023-09-28 17:26:36.542,0.4248104766915678,-0.01510651311605025,0.1998328444648872,0.2866124226598356,0.3827687239848031,0.0471728781335983,-0.008769769459534185,0.2228047889472393,0.5509083730534295,0.5029156549676285,0.1448443594056836,0.6148101996362255,0.9900242065678549,1.369360709559757,1.392439024905884,1.004087133837462,0.933502599053166,1.472739175879738,1.309447247900231,0.7029614235892488,451.6849816849817,797.8021978021978,809.8901098901099,795.7875457875458,619.3040293040293,-0.500549,0.049622,0.858765,2.160797,-3.544006,0.059814,1,1,1,1,1,20.000000
2023-09-28 17:26:37.537,0.3597679580352766,-0.01510651311605025,0.1998328444648872,0.3201597237417973,0.2637460671631495,0.0471728781335983,-0.008769769459534185,0.133020600274239,0.8358035633678726,0.5029156549676285,0.1448443594056836,0.3770014112802527,0.9567001900352946,1.369360709559757,1.392439024905884,1.005107155062126,1.161853191836975,1.472739175879738,1.309447247900231,0.823936245153126,492.3809523809524,754.6886446886447,803.8461538461539,791.3553113553114,668.8644688644689,-0.499512,0.045349,0.854492,1.345825,-3.648682,-0.889740,1,1,1,1,1,20.000000
2023-09-28 17:26:38.267,,,,,,,,,,,,,,,,,,,,,,,,,,,,,,,,,,,,,,/muse/elements/blink
2023-09-28 17:26:38.539,0.4374355713482302,-0.01510651311605025,0.1998328444648872,0.3700046524580559,0.2182579508415518,0.0471728781335983,-0.008769769459534185,0.317252481782724,0.90576877382334,0.5029156549676285,0.1448443594056836,0.7211943298106452,0.9195455225995671,1.369360709559757,1.392439024905884,1.043129525474694,1.085982064989911,1.472739175879738,1.309447247900231,0.8118928869187959,333.2234432234432,718.4249084249085,794.1758241758242,771.6117216117216,612.4542124542124,-0.494507,0.049133,0.848877,1.891632,-2.661743,-0.837402,1,1,1,1,1,20.000000
2023-09-28 17:26:39.537,0.6667140856027121,0.08800967838494043,-0.5499075005103039,0.389530299782144,0.7238639037707407,0.6278298311320424,-0.2071593807110633,0.4360299203781743,0.7628832684058848,0.9790274063944023,0.5772274037797583,0.7202321372005913,1.058612036087958,1.74155334507579,1.190338804217207,1.082436561432027,0.9549856674167451,1.521986758061657,1.258074579482954,0.8211064932122585,589.8901098901099,819.5604395604396,777.2527472527473,729.7069597069598,675.7142857142858,-0.493652,0.037170,0.854309,1.300964,-2.639313,-1.016846,1,1,1,1,1,20.000000
2023-09-28 17:26:40.537,0.6667140856027121,0.08800967838494043,-0.1230776232122301,0.7327060820950223,0.7238639037707407,0.6278298311320424,-0.1290172292223794,0.4589333229702308,0.7628832684058848,0.9790274063944023,0.05016794472078193,0.5975119711235012,1.058612036087958,1.74155334507579,1.474076640739172,0.8138912820731206,0.9549856674167451,1.521986758061657,1.253248680306122,0.9366142695515133,350.1465201465202,807.0695970695971,793.7728937728938,777.2527472527473,694.2490842490843,-0.499023,0.043823,0.858704,1.629944,-3.768311,-0.291595,1,1,1,1,1,20.000000
2023-09-28 17:26:41.537,0.5998698126370758,-0.4269379792626639,-0.1230776232122301,0.7996713665796851,0.5351909740577606,-0.04666703213675642,-0.1290172292223794,0.661381599297815,0.5943613881521679,1.03909125171616,0.05016794472078193,0.7405862153010658,0.9792690755250214,1.689553831313155,1.474076640739172,0.7861092695057986,0.8413546083132241,1.472265441214548,1.253248680306122,0.8260946828223635,353.3699633699634,826.007326007326,795.3846153846154,781.2820512820513,604.3956043956044,-0.493958,0.049316,0.860718,2.026215,-3.499146,-0.829926,1,1,1,1,1,20.000000
2023-09-28 17:26:42.545,0.3878460664653878,-0.5122861558036917,-0.2212119414486007,0.9406288810891623,0.3304742340476366,0.09637259082153632,-0.003392554232655469,0.80084847673566,0.6825576149573065,1.048460492702771,0.488798963841183,0.8400028318210184,0.9055512921652193,1.72958236529533,1.292203390781658,0.9303150783282492,0.9352148427544922,1.489095363897949,1.291338785150583,0.8129889150263599,408.5714285714286,817.5457875457876,786.1172161172161,773.2234432234433,583.4432234432235,-0.493408,0.048645,0.859985,2.347717,-4.164581,-0.613098,1,1,1,1,1,20.000000
2023-09-28 17:26:43.459,,,,,,,,,,,,,,,,,,,,,,,,,,,,,,,,,,,,,,/muse/elements/blink
2023-09-28 17:26:43.537,0.2113347033096022,-0.5613437792821222,-0.2856845830275674,0.4369958520492842,0.3769399360275202,0.2431877632795982,-0.09128288245965833,0.3584629807517388,0.9600004740182144,0.4775624055418762,0.5947321338075495,0.7658660439011674,1.047967718452123,1.724518621493353,1.264131603459464,0.9519246640681032,0.8335502691623773,1.493045270144596,1.266566047930112,0.7727644638412177,383.992673992674,774.0293040293041,779.6703296703297,787.7289377289378,726.4835164835165,-0.491150,0.053345,0.857544,2.115936,-3.282318,-0.635529,1,1,1,1,1,20.000000
2023-09-28 17:26:44.536,0.1372497386880979,-0.5560514487161924,0.1103023773711558,0.2517260074849774,0.5520773812398039,0.2381183361678613,0.0942405164941169,0.2420351834967169,0.957290707613508,0.4748454155564564,0.7386592965230701,0.6062023323822687,1.09536858392914,1.714498139255457,1.294051761033091,0.9631009067077454,0.8085822782033035,1.49118343800526,1.213873360359326,0.902362545178097,321.9413919413919,812.7106227106227,800.6227106227107,776.4468864468864,527.032967032967,-0.500488,0.041138,0.856995,1.158905,-3.603821,-1.069183,1,1,1,1,1,20.000000
2023-09-28 17:26:45.536,0.4402232726767938,0.1203569531147292,-0.1350077774509226,0.2451131669396663,0.5905396306848831,0.1760611658707767,0.1064392832145606,0.399112280214252,0.9166750013331842,0.5238586791933926,0.4049398454630055,0.6848363464302848,1.221977806853152,1.816802221522841,1.236705870418253,1.050546192824772,0.8033737734265524,1.474278661855652,1.123226607398996,0.7127310613177804,679.7435897435897,803.4432234432235,800.6227106227107,799.8168498168499,716.4102564102565,-0.501770,0.056396,0.854919,2.265472,-3.633728,-0.874786,1,1,1,1,1,20.000000
2023-09-28 17:26:45.890,,,,,,,,,,,,,,,,,,,,,,,,,,,,,,,,,,,,,,/muse/elements/blink
2023-09-28 17:26:46.536,0.4817572350710431,0.08654970704901663,-0.03379756325942197,0.4658410275444411,0.4589651336575944,0.3992672483642801,0.2722695374587253,0.4596015905687778,0.5816418221452117,0.7912682026233951,0.2732647217916176,0.2948987090921001,1.126316451963128,1.632100183582057,1.203094877410088,1.108412879914928,0.805340902964378,1.580606483596936,1.214325597181669,0.5750984666188095,568.1318681318681,814.3223443223443,797.3992673992674,774.8351648351648,662.8205128205128,-0.468872,0.049377,0.862000,1.809387,-3.843079,-0.785065,1,1,1,1,1,20.000000
2023-09-28 17:26:46.882,,,,,,,,,,,,,,,,,,,,,,,,,,,,,,,,,,,,,,/muse/elements/jaw_clench
2023-09-28 17:26:47.536,0.4800036052093218,0.01902376752722403,0.02554023420298278,-0.1947404090619358,0.419262735846016,0.393432597471266,0.0129387851140322,0.4180037472179284,0.4895124933983274,0.7912682026233951,0.3131069940875793,0.7238497401634972,1.049223212158402,1.604185306437485,1.307342899005644,1.098928954270837,0.795456224903499,1.64356478518642,1.293218489498139,1.017633176181276,1017.399267399267,818.7545787545788,608.021978021978,767.5824175824176,921.5018315018315,-0.506165,0.051575,0.852844,1.936493,-2.654266,-0.261688,1,1,1,1,1,20.000000
2023-09-28 17:26:47.631,,,,,,,,,,,,,,,,,,,,,,,,,,,,,,,,,,,,,,/muse/elements/jaw_clench
2023-09-28 17:26:47.808,,,,,,,,,,,,,,,,,,,,,,,,,,,,,,,,,,,,,,/muse/elements/jaw_clench
2023-09-28 17:26:47.917,,,,,,,,,,,,,,,,,,,,,,,,,,,,,,,,,,,,,,/muse/elements/blink
2023-09-28 17:26:48.247,,,,,,,,,,,,,,,,,,,,,,,,,,,,,,,,,,,,,,/muse/elements/blink
2023-09-28 17:26:48.536,0.4800036052093218,0.01902376752722403,-0.1052407726192013,-0.04004357769811893,0.419262735846016,0.393432597471266,0.01848355801751407,0.378309995181201,0.4895124933983274,0.7912682026233951,0.1907227574550794,0.7247847563846279,1.049223212158402,1.604185306437485,1.335868299066244,1.088264021029927,0.795456224903499,1.64356478518642,1.151039064591379,1.056716096708594,907.8021978021978,803.040293040293,792.1611721611722,755.0915750915751,783.6996336996338,-0.528442,0.040283,0.840271,1.779480,-3.454285,-0.456085,1,1,1,1,1,20.000000
2023-09-28 17:26:49.220,,,,,,,,,,,,,,,,,,,,,,,,,,,,,,,,,,,,,,/muse/elements/jaw_clench
2023-09-28 17:26:49.536,0.4800036052093218,0.01902376752722403,-0.1052407726192013,0.0503566633919245,0.419262735846016,0.393432597471266,0.01848355801751407,0.3525000296373728,0.4895124933983274,0.7912682026233951,0.1907227574550794,0.7112846000438564,1.049223212158402,1.604185306437485,1.335868299066244,1.072991514731543,0.795456224903499,1.64356478518642,1.151039064591379,1.074218202828505,843.7362637362637,782.4908424908425,826.4102564102565,822.7838827838829,715.6043956043957,-0.518799,0.045288,0.840332,2.243042,-3.850555,-0.014954,1,1,1,1,1,20.000000
2023-09-28 17:26:50.349,,,,,,,,,,,,,,,,,,,,,,,,,,,,,,,,,,,,,,/muse/elements/jaw_clench
2023-09-28 17:26:50.537,0.4800036052093218,0.01902376752722403,-0.1052407726192013,0.6817874189651327,0.419262735846016,0.393432597471266,0.01848355801751407,0.3907507361423899,0.4895124933983274,0.7912682026233951,0.1907227574550794,0.9599174551551022,1.049223212158402,1.604185306437485,1.335868299066244,1.016951950107872,0.795456224903499,1.64356478518642,1.151039064591379,0.9404015031732929,1146.739926739927,758.3150183150184,778.4615384615385,827.2161172161173,861.4652014652015,-0.495789,0.048828,0.857727,1.368256,-4.418793,-1.398163,1,1,1,1,1,20.000000
2023-09-28 17:26:51.541,0.4800036052093218,0.01902376752722403,-0.1052407726192013,0.7085282576912839,0.419262735846016,0.393432597471266,0.01848355801751407,0.2841750222559813,0.4895124933983274,0.7912682026233951,0.1907227574550794,0.8087133461047875,1.049223212158402,1.604185306437485,1.335868299066244,1.08107920603537,0.795456224903499,1.64356478518642,1.151039064591379,1.001871292293086,1081.465201465202,778.4615384615385,781.2820512820513,798.6080586080586,817.948717948718,-0.492065,0.043762,0.854248,2.557068,-2.444916,0.044861,1,1,1,1,1,20.000000
2023-09-28 17:26:51.661,,,,,,,,,,,,,,,,,,,,,,,,,,,,,,,,,,,,,,/muse/elements/jaw_clench
2023-09-28 17:26:52.536,0.4800036052093218,0.01902376752722403,-0.1052407726192013,0.4221167705772615,0.419262735846016,0.393432597471266,0.01848355801751407,0.4407954005003603,0.4895124933983274,0.7912682026233951,0.1907227574550794,0.6506189620416292,1.049223212158402,1.604185306437485,1.335868299066244,1.285077002630525,0.795456224903499,1.64356478518642,1.151039064591379,1.111583129329034,983.956043956044,746.2271062271062,827.6190476190476,804.6520146520147,850.1831501831502,-0.493347,0.040710,0.852966,1.779480,-3.095398,-0.949554,1,1,1,1,1,20.000000
2023-09-28 17:26:53.536,0.4800036052093218,-0.3826370172276271,-0.1052407726192013,0.5046542646303852,0.419262735846016,0.4046371663405798,0.01848355801751407,0.5995230820760276,0.4895124933983274,0.6608482853537644,0.1907227574550794,0.7430224022557544,1.049223212158402,1.440731358962862,1.335868299066244,1.315323599413948,0.795456224903499,1.798079238955215,1.151039064591379,1.115889518045041,882.4175824175825,743.0036630036631,789.7435897435897,791.7582417582418,713.5897435897436,-0.497070,0.046143,0.858887,1.914062,-4.007568,-0.186920,1,1,1,1,1,20.000000
2023-09-28 17:26:54.104,,,,,,,,,,,,,,,,,,,,,,,,,,,,,,,,,,,,,,/muse/elements/jaw_clench
2023-09-28 17:26:54.540,0.2899288518774295,-0.3826370172276271,-0.1052407726192013,0.3299783517592846,0.5243989619849235,0.4046371663405798,0.01848355801751407,0.7328141439232562,0.6991740438341576,0.6608482853537644,0.1907227574550794,0.9809625027587306,1.185464426810627,1.440731358962862,1.335868299066244,1.041056511530629,1.025768133511701,1.798079238955215,1.151039064591379,0.8279615741829309,1077.435897435897,806.2637362637363,797.8021978021978,816.3369963369963,885.2380952380953,-0.491882,0.044373,0.857422,1.839294,-3.970184,-0.261688,1,1,1,1,1,20.000000
2023-09-28 17:26:54.617,,,,,,,,,,,,,,,,,,,,,,,,,,,,,,,,,,,,,,/muse/elements/jaw_clench
2023-09-28 17:26:55.309,,,,,,,,,,,,,,,,,,,,,,,,,,,,,,,,,,,,,,/muse/elements/blink
2023-09-28 17:26:55.536,0.1036461893057741,-0.3826370172276271,-0.1052407726192013,0.1283027375846073,0.3133949491477445,0.4046371663405798,0.01848355801751407,0.5138158499884125,0.8320384582306795,0.6608482853537644,0.1907227574550794,0.9340394061376258,1.244756852000379,1.440731358962862,1.335868299066244,1.054651449909215,1.098826662903497,1.798079238955215,1.151039064591379,0.9406760351870049,1108.058608058608,781.6849816849817,800.6227106227107,795.3846153846154,860.2564102564103,-0.487610,0.043762,0.862732,1.547699,-3.222504,-0.770111,1,1,1,1,1,20.000000
2023-09-28 17:26:55.553,,,,,,,,,,,,,,,,,,,,,,,,,,,,,,,,,,,,,,/muse/elements/jaw_clench
2023-09-28 17:26:56.533,,,,,,,,,,,,,,,,,,,,,,,,,,,,,,,,,,,,,,/muse/elements/blink
2023-09-28 17:26:56.545,0.3214370339624346,-0.3826370172276271,-0.2770050166057518,0.2002485492320129,0.4828556966411504,0.4046371663405798,-0.1264911621143703,0.3604410660244438,0.6733033176504176,0.6608482853537644,0.3933048029338074,0.4387412720963265,1.347033709595656,1.440731358962862,1.433742814136958,1.057666450544066,1.263049007256099,1.798079238955215,1.352031962524912,1.076948716280798,1269.230769230769,840.9157509157509,805.0549450549451,830.0366300366301,792.967032967033,-0.489075,0.052917,0.856628,1.248627,-3.162689,-1.233673,1,1,1,1,1,20.000000
2023-09-28 17:26:57.535,0.3214370339624346,-0.3826370172276271,-0.2770050166057518,0.2002485492320129,0.4828556966411504,0.4046371663405798,-0.1264911621143703,0.3604410660244438,0.6733033176504176,0.6608482853537644,0.3933048029338074,0.4387412720963265,1.347033709595656,1.440731358962862,1.433742814136958,1.057666450544066,1.263049007256099,1.798079238955215,1.352031962524912,1.076948716280798,1211.611721611722,758.3150183150184,808.2783882783883,793.7728937728938,917.4725274725275,-0.489563,0.044617,0.859375,1.450500,-3.409424,0.545807,1,1,1,1,1,20.000000
2023-09-28 17:26:58.541,0.3214370339624346,-0.3826370172276271,0.5386058034146516,0.2002485492320129,0.4828556966411504,0.4046371663405798,1.296765233165283,0.3604410660244438,0.6733033176504176,0.6608482853537644,1.27604339975693,0.4387412720963265,1.347033709595656,1.440731358962862,1.663780552283403,1.057666450544066,1.263049007256099,1.798079238955215,1.40161286578972,1.076948716280798,1154.798534798535,758.7179487179487,786.9230769230769,799.8168498168499,1024.249084249084,-0.489197,0.051392,0.855896,1.248627,-3.140259,-1.375732,1,2,1,1,2,20.000000
2023-09-28 17:26:59.536,0.3214370339624346,-0.3826370172276271,0.5696269564857459,0.7233220016553239,0.4828556966411504,0.4046371663405798,1.12496234525382,0.5561287255584866,0.6733033176504176,0.6608482853537644,1.297718279648986,0.6866828685167441,1.347033709595656,1.440731358962862,1.596330706741296,1.127122495904698,1.263049007256099,1.798079238955215,1.334052593253045,0.9326574028881321,1071.391941391941,803.8461538461539,766.7765567765568,811.5018315018315,794.5787545787546,-0.487122,0.047302,0.860535,1.300964,-3.065491,-0.463562,1,1,1,1,1,20.000000
2023-09-28 17:27:00.536,0.4538641221855985,-0.3826370172276271,0.526602922456868,0.888303993954745,0.6476444395806955,0.4046371663405798,0.6535794885981411,0.5789977398050402,0.8734676046691086,0.6608482853537644,0.8009788676259355,0.8431784457973995,1.003265773763663,1.440731358962862,1.40313167850863,0.9738611005501897,1.147903029507717,1.798079238955215,1.278589884024272,0.9897854099535133,1254.322344322344,761.5384615384615,834.4688644688645,803.8461538461539,852.6007326007326,-0.484314,0.054199,0.860352,1.375732,-3.865509,-0.314026,1,1,1,1,1,20.000000
2023-09-28 17:27:00.803,,,,,,,,,,,,,,,,,,,,,,,,,,,,,,,,,,,,,,/muse/elements/jaw_clench
2023-09-28 17:27:01.545,0.3386536390695452,-0.3826370172276271,0.6867269302411139,1.254888974246653,0.5688511412784701,0.4046371663405798,0.7244926030228337,0.8167022116940199,0.8486808901004039,0.6608482853537644,0.8009788676259355,0.8860335706293615,0.9400747219022735,1.440731358962862,1.333538787107416,1.176243793653178,1.119920887948058,1.798079238955215,1.293046334992921,0.9576227925353831,1201.941391941392,803.040293040293,784.5054945054945,784.9084249084249,875.1648351648352,-0.493164,0.037842,0.854553,1.652374,-2.841187,-1.323395,1,1,1,1,1,20.000000
2023-09-28 17:27:02.541,0.426132697683184,0.04541076782926909,0.7149798464234024,0.5260416900896034,0.6263325953635869,0.357948157567646,0.6222726256716797,0.629021301932885,1.061294409123059,0.6981446226205266,0.8264788420959948,0.7499376436563543,1.074365181044554,1.686546617772619,1.395885732952246,1.11213900021092,1.009136648040506,1.41068819179605,1.065479332478348,0.9343212640613591,1164.065934065934,798.2051282051282,788.1318681318681,806.6666666666667,826.8131868131868,-0.486816,0.046814,0.859131,1.682281,-2.041168,0.037384,1,1,1,1,1,20.000000
2023-09-28 17:27:03.325,,,,,,,,,,,,,,,,,,,,,,,,,,,,,,,,,,,,,,/muse/elements/jaw_clench
2023-09-28 17:27:03.536,0.4073414990552636,0.07736768732612409,0.2726518790476697,0.9191510224325274,0.2757771362889443,0.2735243008866466,0.1207916816936196,0.8409786992426485,0.9723552619290285,0.6910083842286163,0.615773393927436,0.8408594168757775,1.091351112980262,1.680976364229463,1.43695084468208,1.115238395379963,0.8962535116669414,1.367267421526141,0.9269638593592077,1.011232390166217,1244.652014652015,818.3516483516484,827.2161172161173,857.8388278388279,1137.472527472527,-0.579529,0.108459,0.804565,-2.063599,-8.104858,1.824341,1,1,4,1,1,20.000000
2023-09-28 17:27:04.536,0.4028694661691592,0.07736768732612409,0.2726518790476697,1.274088887477296,0.2884908912784673,0.2735243008866466,0.1207916816936196,1.119506823373617,0.9673205449544267,0.6910083842286163,0.615773393927436,0.728637685933019,1.069988250913288,1.680976364229463,1.43695084468208,1.263547866992903,0.8310745908862371,1.367267421526141,0.9269638593592077,1.231721687092944,1228.534798534798,780.0732600732601,784.9084249084249,809.8901098901099,774.8351648351648,-0.521606,0.056519,0.834412,0.328979,-5.301056,-2.295380,1,1,1,1,1,20.000000
2023-09-28 17:27:04.550,,,,,,,,,,,,,,,,,,,,,,,,,,,,,,,,,,,,,,/muse/elements/jaw_clench
2023-09-28 17:27:05.536,0.4028694661691592,0.07736768732612409,0.2726518790476697,1.274088887477296,0.2884908912784673,0.2735243008866466,0.1207916816936196,1.119506823373617,0.9673205449544267,0.6910083842286163,0.615773393927436,0.728637685933019,1.069988250913288,1.680976364229463,1.43695084468208,1.263547866992903,0.8310745908862371,1.367267421526141,0.9269638593592077,1.231721687092944,1212.820512820513,787.7289377289378,782.893772893773,772.8205128205128,901.3553113553114,-0.488037,0.065857,0.857422,2.175751,-5.286102,0.897217,1,1,1,1,1,20.000000
2023-09-28 17:27:05.996,,,,,,,,,,,,,,,,,,,,,,,,,,,,,,,,,,,,,,/muse/elements/jaw_clench
2023-09-28 17:27:06.536,0.4028694661691592,0.07736768732612409,0.2540063042457944,0.7872580620073734,0.2884908912784673,0.2735243008866466,0.2867296987638581,0.6398228339709527,0.9673205449544267,0.6910083842286163,0.6762287481078286,0.8731406061312568,1.069988250913288,1.680976364229463,1.269737886128976,1.098708248021712,0.8310745908862371,1.367267421526141,0.8563912767852823,1.330550971097737,1019.010989010989,824.3956043956044,785.3113553113553,816.3369963369963,838.901098901099,-0.465271,0.065491,0.870605,1.884155,-3.386993,-0.829926,1,1,1,1,1,20.000000
2023-09-28 17:27:07.132,,,,,,,,,,,,,,,,,,,,,,,,,,,,,,,,,,,,,,/muse/elements/jaw_clench
2023-09-28 17:27:07.222,,,,,,,,,,,,,,,,,,,,,,,,,,,,,,,,,,,,,,/muse/elements/blink
2023-09-28 17:27:07.334,,,,,,,,,,,,,,,,,,,,,,,,,,,,,,,,,,,,,,/muse/elements/jaw_clench
2023-09-28 17:27:07.547,0.4028694661691592,0.07736768732612409,0.6423814918104288,0.766395719576613,0.2884908912784673,0.2735243008866466,0.3574532078111068,0.6824058066165283,0.9673205449544267,0.6910083842286163,0.6692269076449873,0.8339636227494244,1.069988250913288,1.680976364229463,1.288255772438469,1.112030773513952,0.8310745908862371,1.367267421526141,0.8607571270863853,1.308614966932224,529.8534798534798,772.8205128205128,780.0732600732601,799.0109890109891,615.6776556776557,-0.473694,0.063721,0.869080,2.422485,-2.355194,-0.433655,1,1,1,1,1,20.000000
2023-09-28 17:27:07.602,,,,,,,,,,,,,,,,,,,,,,,,,,,,,,,,,,,,,,/muse/elements/jaw_clench
2023-09-28 17:27:08.538,0.4028694661691592,0.07736768732612409,0.6423814918104288,0.7061917255291824,0.2884908912784673,0.2735243008866466,0.3574532078111068,0.7111274548145353,0.9673205449544267,0.6910083842286163,0.6692269076449873,0.6069715822673982,1.069988250913288,1.680976364229463,1.288255772438469,1.136559266339102,0.8310745908862371,1.367267421526141,0.8607571270863853,1.288607940871132,634.6153846153846,799.4139194139194,782.4908424908425,813.919413919414,651.941391941392,-0.475159,0.067627,0.864502,1.659851,-4.127197,-0.822449,1,1,1,1,1,20.000000
2023-09-28 17:27:09.146,,,,,,,,,,,,,,,,,,,,,,,,,,,,,,,,,,,,,,/muse/elements/jaw_clench
2023-09-28 17:27:09.536,0.4245605969033752,0.07736768732612409,0.1942164122740143,0.402377580277773,0.7128136420395161,0.2735243008866466,-0.0477635499099447,0.5011942930274006,0.7908431540479582,0.6910083842286163,0.2783453969265312,0.7332365261084881,1.304702627044894,1.680976364229463,1.501331400706708,1.283299181451751,1.313500662500521,1.367267421526141,1.343796923871268,1.149448838622704,617.2893772893773,742.6007326007326,822.7838827838829,687.3992673992674,667.6556776556777,-0.465637,0.057068,0.870728,2.355194,-3.955231,-0.829926,1,1,1,1,1,20.000000
2023-09-28 17:27:09.742,,,,,,,,,,,,,,,,,,,,,,,,,,,,,,,,,,,,,,/muse/elements/blink
2023-09-28 17:27:10.164,,,,,,,,,,,,,,,,,,,,,,,,,,,,,,,,,,,,,,/muse/elements/jaw_clench
2023-09-28 17:27:10.538,0.4980379121005781,0.07736768732612409,-0.002209759089234696,0.2138000208003101,0.7897761202256277,0.2735243008866466,0.03135286095925197,0.09952516436168624,0.5963076181036127,0.6910083842286163,0.4099752921139788,0.2995219427622624,1.344703377375017,1.680976364229463,1.610645591019203,1.329810476103744,1.202197662643749,1.367267421526141,1.309071620037567,1.048173688366939,410.1831501831502,781.6849816849817,769.5970695970697,787.7289377289378,694.6520146520147,-0.445496,0.062500,0.877686,2.272949,-3.140259,-1.353302,1,1,1,1,1,20.000000
2023-09-28 17:27:10.779,,,,,,,,,,,,,,,,,,,,,,,,,,,,,,,,,,,,,,/muse/elements/jaw_clench
2023-09-28 17:27:10.958,,,,,,,,,,,,,,,,,,,,,,,,,,,,,,,,,,,,,,/muse/elements/jaw_clench
2023-09-28 17:27:11.539,0.4980379121005781,0.07736768732612409,0.04612017177127045,0.4710733004665826,0.7897761202256277,0.2735243008866466,0.325419317341005,0.3407599051515391,0.5963076181036127,0.6910083842286163,0.7023556106071512,0.5014358287309685,1.344703377375017,1.680976364229463,1.519761609459832,1.401537720746616,1.202197662643749,1.367267421526141,1.120064196932323,1.223988073197378,480.2930402930403,751.4652014652015,795.7875457875458,791.3553113553114,645.0915750915751,-0.450317,0.053833,0.875793,2.100983,-4.276733,-0.134583,1,1,1,1,1,20.000000
2023-09-28 17:27:11.990,,,,,,,,,,,,,,,,,,,,,,,,,,,,,,,,,,,,,,/muse/elements/jaw_clench
2023-09-28 17:27:12.475,,,,,,,,,,,,,,,,,,,,,,,,,,,,,,,,,,,,,,/muse/elements/jaw_clench
2023-09-28 17:27:12.536,-0.03547665287024607,0.07736768732612409,0.1873159034520984,0.2613863834724017,0.3372189441809723,0.2735243008866466,0.254099609207348,0.340274658226939,0.7165795701144645,0.6910083842286163,0.8179971220649693,0.8947323219754773,1.192240840416959,1.680976364229463,1.589896127662352,1.211418454962205,1.325085638265186,1.367267421526141,1.056766694803744,1.180263677197823,497.2161172161173,821.5750915750916,793.7728937728938,799.8168498168499,840.1098901098901,-0.458557,0.058350,0.873108,1.943970,-3.185120,-1.039276,1,1,1,1,1,20.000000
2023-09-28 17:27:12.804,,,,,,,,,,,,,,,,,,,,,,,,,,,,,,,,,,,,,,/muse/elements/jaw_clench
2023-09-28 17:27:13.069,,,,,,,,,,,,,,,,,,,,,,,,,,,,,,,,,,,,,,/muse/elements/jaw_clench
2023-09-28 17:27:13.541,0.3169265053303131,0.07736768732612409,0.3455097260989872,0.3633211721871798,0.4815141667898845,0.2735243008866466,0.6399014714647627,0.2289017982069297,0.9282501094137597,0.6910083842286163,0.9135321521101479,0.9759078221984001,1.159325183869581,1.680976364229463,1.519333559475067,1.119879348728972,1.320214822755013,1.367267421526141,1.269713911218964,1.238429101845145,552.4175824175825,805.4578754578755,780.4761904761905,817.1428571428571,668.4615384615385,-0.462891,0.054993,0.878052,2.908478,-3.416901,-1.263580,1,1,1,1,1,20.000000
2023-09-28 17:27:13.839,,,,,,,,,,,,,,,,,,,,,,,,,,,,,,,,,,,,,,/muse/elements/jaw_clench
2023-09-28 17:27:14.436,,,,,,,,,,,,,,,,,,,,,,,,,,,,,,,,,,,,,,/muse/elements/blink
2023-09-28 17:27:14.536,0.08683590503560351,0.07736768732612409,0.3180991852767809,0.305816124563434,0.2524864587058429,0.2735243008866466,0.6053476229339159,0.1413915249078327,0.9508030092559319,0.6910083842286163,0.8288912558482205,0.8733580750835997,1.119011297241714,1.680976364229463,1.428063108932238,1.176676462688724,1.354843751159943,1.367267421526141,1.252753899127805,1.15160101288864,671.6849816849817,784.1025641025641,774.0293040293041,821.1721611721612,599.5604395604396,-0.466675,0.056152,0.872131,2.056122,-3.730927,-0.373840,1,1,1,1,1,20.000000
2023-09-28 17:27:15.252,,,,,,,,,,,,,,,,,,,,,,,,,,,,,,,,,,,,,,/muse/elements/jaw_clench
2023-09-28 17:27:15.536,0.08683590503560351,0.07736768732612409,0.4367532574885434,-0.190802141456918,0.2524864587058429,0.2735243008866466,0.5827885084944159,0.03055306080481586,0.9508030092559319,0.6910083842286163,0.7253161014480189,0.6153423617276375,1.119011297241714,1.680976364229463,1.392209943871354,1.201724017534575,1.354843751159943,1.367267421526141,1.122909165948994,1.104028024456878,367.8754578754579,730.9157509157509,786.5201465201466,786.9230769230769,624.9450549450549,-0.469910,0.051758,0.868408,2.175751,-3.185120,-0.179443,1,1,1,1,1,20.000000
2023-09-28 17:27:15.668,,,,,,,,,,,,,,,,,,,,,,,,,,,,,,,,,,,,,,/muse/elements/jaw_clench
2023-09-28 17:27:16.539,0.5457191226494703,0.0192079403851727,0.4367532574885434,0.6196184224847615,0.9430647610299532,0.199623204841591,0.5827885084944159,0.6170128995933042,0.5899859560355856,0.962729068524101,0.7253161014480189,0.7905432961134707,1.268459934076269,1.889635288716738,1.392209943871354,0.9757171456929865,1.271216170370476,1.664875060021757,1.122909165948994,1.033594115900018,408.1684981684982,774.8351648351648,771.6117216117216,783.6996336996338,573.3699633699634,-0.474609,0.050659,0.875488,1.929016,-2.841187,-0.942078,1,1,1,1,1,20.000000
2023-09-28 17:27:16.553,,,,,,,,,,,,,,,,,,,,,,,,,,,,,,,,,,,,,,/muse/elements/jaw_clench
2023-09-28 17:27:17.238,,,,,,,,,,,,,,,,,,,,,,,,,,,,,,,,,,,,,,/muse/elements/jaw_clench
2023-09-28 17:27:17.503,,,,,,,,,,,,,,,,,,,,,,,,,,,,,,,,,,,,,,/muse/elements/jaw_clench
2023-09-28 17:27:17.538,0.5651386857357505,0.1196439071146793,0.1769949799765418,0.5578000970103408,0.6938188555528535,0.2193043855703053,0.6175051804372887,0.6375959474389027,0.8078299022636291,0.5762096794029716,0.855623360858047,0.8225672213047621,1.211649495826492,1.841142481256549,1.570628505923326,1.040601811511379,1.290063982518429,1.650929324717439,1.462079727547207,1.066853886550547,374.3223443223443,769.5970695970697,796.1904761904763,756.7032967032967,557.2527472527472,-0.472595,0.056519,0.870239,1.719666,-3.162689,-0.829926,1,1,1,1,1,20.000000
2023-09-28 17:27:17.682,,,,,,,,,,,,,,,,,,,,,,,,,,,,,,,,,,,,,,/muse/elements/jaw_clench
2023-09-28 17:27:17.948,,,,,,,,,,,,,,,,,,,,,,,,,,,,,,,,,,,,,,/muse/elements/jaw_clench
2023-09-28 17:27:18.536,0.4583015821459653,0.1196439071146793,0.1264472149857734,0.3679494526731834,0.3957130697523455,0.2193043855703053,0.5150874027370276,0.09885149335631499,0.9765183336701134,0.5762096794029716,0.8528807406964516,0.7084577175788863,1.097590165110964,1.841142481256549,1.463719253081755,1.178385418240217,1.135017862734866,1.650929324717439,1.181661281174866,1.110306410518062,378.7545787545787,788.1318681318681,800.6227106227107,790.1465201465202,857.4358974358975,-0.474304,0.052368,0.871338,2.056122,-3.170166,-0.097198,1,1,1,1,1,20.000000
2023-09-28 17:27:18.565,,,,,,,,,,,,,,,,,,,,,,,,,,,,,,,,,,,,,,/muse/elements/jaw_clench
2023-09-28 17:27:19.164,,,,,,,,,,,,,,,,,,,,,,,,,,,,,,,,,,,,,,/muse/elements/blink
2023-09-28 17:27:19.536,0.5891140967212244,0.1196439071146793,-0.003072976362393945,0.3862656254389779,0.5160854621975239,0.2193043855703053,0.457776199525671,0.1893477708581267,0.8648025457382007,0.5762096794029716,0.7801050566817903,0.5809348252330747,1.050139976375733,1.841142481256549,1.378837980644187,1.08457826768671,1.034116815828378,1.650929324717439,0.9700244212559554,1.20155882873332,355.7875457875458,816.3369963369963,776.4468864468864,763.5531135531136,565.3113553113553,-0.472290,0.051880,0.862854,1.585083,-4.329071,-0.807495,1,1,1,1,1,20.000000
2023-09-28 17:27:20.019,,,,,,,,,,,,,,,,,,,,,,,,,,,,,,,,,,,,,,/muse/elements/jaw_clench
2023-09-28 17:27:20.536,0.5996651166643787,0.1196439071146793,-0.06905507299618484,0.4409633866579613,0.5439379347756841,0.2193043855703053,0.05676564716747714,0.2590523166294409,0.8310965320983821,0.5762096794029716,0.3960663287638472,0.5579059934318646,1.071228904128261,1.841142481256549,1.392807318054955,1.034349192972015,1.051068173813095,1.650929324717439,1.154985332086451,1.246774802287644,476.6666666666667,799.0109890109891,790.1465201465202,745.8241758241759,603.1868131868132,-0.466980,0.050415,0.871399,2.616882,-2.041168,-1.091614,1,1,1,1,1,20.000000
2023-09-28 17:27:20.722,,,,,,,,,,,,,,,,,,,,,,,,,,,,,,,,,,,,,,/muse/elements/jaw_clench
2023-09-28 17:27:20.987,,,,,,,,,,,,,,,,,,,,,,,,,,,,,,,,,,,,,,/muse/elements/jaw_clench
2023-09-28 17:27:21.536,0.6019420770529964,0.1196439071146793,-0.1521774133205312,0.3013835402204127,0.7441373322159718,0.2193043855703053,0.1218209658586286,0.2869604315599878,0.7998119992348205,0.5762096794029716,0.6619527707387789,0.9591159568836777,1.274096737556334,1.841142481256549,1.437679041431881,1.176167830173142,1.143098211250689,1.650929324717439,1.19664673413842,1.112284881009022,426.3003663003663,770.8058608058608,807.8754578754579,765.1648351648352,686.1904761904763,-0.468811,0.058960,0.868347,1.001892,-3.940277,0.067291,1,1,1,1,1,20.000000
2023-09-28 17:27:21.848,,,,,,,,,,,,,,,,,,,,,,,,,,,,,,,,,,,,,,/muse/elements/jaw_clench
2023-09-28 17:27:22.025,,,,,,,,,,,,,,,,,,,,,,,,,,,,,,,,,,,,,,/muse/elements/jaw_clench
2023-09-28 17:27:22.465,,,,,,,,,,,,,,,,,,,,,,,,,,,,,,,,,,,,,,/muse/elements/blink
2023-09-28 17:27:22.536,0.4539631351637413,0.1196439071146793,-0.2449613061611442,0.3336416589554054,0.7625099667245228,0.2193043855703053,-0.04056007305503342,0.4656485419969253,0.8289365210569593,0.5762096794029716,0.6370797453662069,0.8840031513435272,1.211926079145289,1.841142481256549,1.362126715764042,1.250238636572086,1.146295136249041,1.650929324717439,1.224868551366172,1.018121250648091,404.5421245421246,821.978021978022,786.1172161172161,803.4432234432235,523.0036630036631,-0.473022,0.053894,0.867065,2.063599,-3.738403,-1.166382,1,1,1,1,1,20.000000
2023-09-28 17:27:23.258,,,,,,,,,,,,,,,,,,,,,,,,,,,,,,,,,,,,,,/muse/elements/jaw_clench
2023-09-28 17:27:23.536,0.3683113492395616,0.1196439071146793,0.1337783390917394,0.4773980017231374,0.6373633634628352,0.2193043855703053,-0.04091350809682499,0.5764763212986311,0.6793543074911053,0.5762096794029716,0.3911861183192809,0.7789354251349748,1.162526658256185,1.841142481256549,1.329194415463667,1.153424561640216,1.067470789355712,1.650929324717439,1.161619366820946,1.022413962091351,359.4139194139194,788.1318681318681,774.8351648351648,789.3406593406594,564.5054945054945,-0.482178,0.060486,0.870117,1.607513,-2.250519,0.157013,1,1,1,1,1,20.000000
2023-09-28 17:27:24.548,0.3683113492395616,0.1196439071146793,0.3850258554716773,0.6549216948420812,0.6373633634628352,0.2193043855703053,0.1284549101006503,0.5229234987050061,0.6793543074911053,0.5762096794029716,0.3343874589336369,0.4798539214304572,1.162526658256185,1.841142481256549,1.319588027164574,1.393705505692525,1.067470789355712,1.650929324717439,1.032844639345773,1.090654885119539,539.5238095238095,779.2673992673992,790.952380952381,796.1904761904763,756.7032967032967,-0.471252,0.047180,0.868164,1.577606,-3.730927,0.321503,1,1,1,1,1,20.000000
2023-09-28 17:27:25.536,0.3935605072304239,0.1196439071146793,0.1368215381367165,0.2603173895766647,0.4054537022646869,0.2193043855703053,0.06334342952016059,0.257237712814078,0.5184144422128939,0.5762096794029716,0.5902826835025944,0.4534151072020898,0.9706563039086269,1.841142481256549,1.404757692224623,0.9989708049958286,1.263949473920162,1.650929324717439,1.38200830284788,1.06949501354408,430.3296703296704,772.014652014652,804.2490842490843,776.0439560439561,568.5347985347986,-0.471130,0.060120,0.868469,2.086029,-3.013153,-0.164490,1,1,1,1,1,20.000000
2023-09-28 17:27:26.004,,,,,,,,,,,,,,,,,,,,,,,,,,,,,,,,,,,,,,/muse/elements/jaw_clench
2023-09-28 17:27:26.540,0.3770410127615472,0.1196439071146793,0.2121708923406559,0.3519002253258792,0.3584650853403422,0.2193043855703053,0.2374887534341973,0.3609366310253654,0.7516513194567808,0.5762096794029716,0.324218906362874,0.8254057489434384,1.085879562380599,1.841142481256549,1.342515089152052,1.05159377951864,1.14379201025247,1.650929324717439,1.463895437734016,0.9688365823507288,774.0293040293041,811.9047619047619,805.8608058608058,790.1465201465202,727.2893772893773,-0.475952,0.048706,0.869934,1.929016,-2.168274,-0.560760,1,1,4,1,1,20.000000
2023-09-28 17:27:26.706,,,,,,,,,,,,,,,,,,,,,,,,,,,,,,,,,,,,,,/muse/elements/jaw_clench
2023-09-28 17:27:27.411,,,,,,,,,,,,,,,,,,,,,,,,,,,,,,,,,,,,,,/muse/elements/blink
2023-09-28 17:27:27.521,,,,,,,,,,,,,,,,,,,,,,,,,,,,,,,,,,,,,,/muse/elements/jaw_clench
2023-09-28 17:27:27.536,0.2199077048517056,0.1196439071146793,-0.1969599295372579,0.5049332216376425,0.3112784364390104,0.2193043855703053,-0.02154782897474518,0.5411042610664173,0.5375504137136219,0.5762096794029716,0.4824206768340781,0.817537188377082,1.164323575550773,1.841142481256549,1.330978568240516,1.052906167117299,1.098781273300789,1.650929324717439,1.056443924094743,0.893621621381952,635.4212454212454,804.6520146520147,785.7142857142858,791.3553113553114,712.7838827838829,-0.465759,0.059326,0.867249,2.796326,-3.072968,-0.650482,1,1,1,1,1,20.000000
2023-09-28 17:27:28.225,,,,,,,,,,,,,,,,,,,,,,,,,,,,,,,,,,,,,,/muse/elements/jaw_clench
2023-09-28 17:27:28.447,,,,,,,,,,,,,,,,,,,,,,,,,,,,,,,,,,,,,,/muse/elements/jaw_clench
2023-09-28 17:27:28.548,0.2318786319855162,0.1196439071146793,-0.1214693190284097,0.6306922938338458,0.3303524461154877,0.2193043855703053,-0.02863984350998416,0.6341967430352062,0.4217254676022458,0.5762096794029716,0.5155155342142402,0.5612644600013618,1.178483031337393,1.841142481256549,1.259825233047256,1.037286436091813,1.147939555784434,1.650929324717439,0.9831502475205621,1.049563739971364,1070.989010989011,731.7216117216118,779.2673992673992,800.6227106227107,859.4505494505495,-0.475037,0.050537,0.864868,2.048645,-3.708496,-0.814972,1,1,1,1,1,20.000000
2023-09-28 17:27:29.546,0.6328188969697559,0.1196439071146793,-0.3085484068361669,0.8615118924808391,0.3937383157342016,0.2193043855703053,0.02494768453530313,0.4532768927059008,0.7595576346363846,0.5762096794029716,0.4069123508360292,0.4556353835361856,1.174416475325873,1.841142481256549,1.334589564068576,1.144970684506081,1.066542272928086,1.650929324717439,1.071572439169648,0.8401580594992036,886.0439560439561,759.92673992674,814.3223443223443,789.7435897435897,809.8901098901099,-0.473083,0.053467,0.864868,2.183228,-2.302856,-1.166382,1,1,1,1,1,20.000000
2023-09-28 17:27:30.535,0.5724012462640066,0.1196439071146793,-0.2802538519744456,0.7927737821583249,0.4058622162508293,0.2193043855703053,0.07626891112926397,0.5305786848845915,0.9074805118252532,0.5762096794029716,0.4932066231742771,0.6647832402964183,1.23464169837559,1.841142481256549,1.508920083802135,1.090184017475091,1.088322501113794,1.650929324717439,1.11830412636553,0.9696016322684748,743.8095238095239,791.3553113553114,784.1025641025641,788.9377289377289,635.8241758241759,-0.468384,0.060120,0.866882,1.353302,-4.037476,-0.702820,1,1,1,1,1,20.000000
2023-09-28 17:27:31.181,,,,,,,,,,,,,,,,,,,,,,,,,,,,,,,,,,,,,,/muse/elements/blink
2023-09-28 17:27:31.545,0.4592814436411269,0.1196439071146793,-0.1307483042433716,0.8210477746322292,0.7225961381262095,0.2193043855703053,0.1493504204692188,0.5888152858404446,0.9354827904828786,0.5762096794029716,0.4702666218894886,0.9021783760914673,1.224769333938873,1.841142481256549,1.559053940715484,1.099193056364612,1.235375416236032,1.650929324717439,1.216086946317062,1.0101741079461,1118.534798534798,784.1025641025641,805.4578754578755,798.2051282051282,844.9450549450549,-0.476135,0.058044,0.865723,1.779480,-3.715973,-1.517792,1,1,1,1,1,20.000000
2023-09-28 17:27:31.781,,,,,,,,,,,,,,,,,,,,,,,,,,,,,,,,,,,,,,/muse/elements/jaw_clench
2023-09-28 17:27:32.548,0.4592814436411269,0.1196439071146793,0.1619061648511001,0.7058440668920808,0.7225961381262095,0.2193043855703053,0.4026720507189726,0.6214042186562562,0.9354827904828786,0.5762096794029716,0.6336541002429167,0.9021202920650101,1.224769333938873,1.841142481256549,1.328342398142324,1.079176028792855,1.235375416236032,1.650929324717439,1.198551975429764,0.8932028041521568,968.6446886446887,850.989010989011,795.3846153846154,815.1282051282052,1053.663003663004,-0.483826,0.051514,0.866577,1.188812,-2.422485,-0.643005,1,1,1,1,1,20.000000
2023-09-28 17:27:32.736,,,,,,,,,,,,,,,,,,,,,,,,,,,,,,,,,,,,,,/muse/elements/jaw_clench
2023-09-28 17:27:33.428,,,,,,,,,,,,,,,,,,,,,,,,,,,,,,,,,,,,,,/muse/elements/jaw_clench
2023-09-28 17:27:33.536,0.7532272040636537,0.1196439071146793,0.07990673126318541,0.2656995739477668,0.8536157869422191,0.2193043855703053,0.1595603537380673,0.4014862003805054,0.8273437637409903,0.5762096794029716,0.5002325576644756,0.8233948387305493,1.304499391881672,1.841142481256549,1.462676683018234,1.164398968195843,1.210001323748013,1.650929324717439,1.267940827869555,0.9981359333132077,803.8461538461539,775.2380952380953,791.7582417582418,764.7619047619048,760.3296703296703,-0.457275,0.052490,0.871033,1.824341,-3.678589,0.112152,1,1,1,1,1,20.000000
2023-09-28 17:27:33.717,,,,,,,,,,,,,,,,,,,,,,,,,,,,,,,,,,,,,,/muse/elements/jaw_clench
2023-09-28 17:27:33.939,,,,,,,,,,,,,,,,,,,,,,,,,,,,,,,,,,,,,,/muse/elements/jaw_clench
2023-09-28 17:27:34.405,,,,,,,,,,,,,,,,,,,,,,,,,,,,,,,,,,,,,,/muse/elements/blink
2023-09-28 17:27:34.539,0.5529925654508431,0.1196439071146793,-0.05159661398070328,0.01021644040226309,0.9376542375987993,0.2193043855703053,0.06707674646351718,0.6677817277359126,1.037785656144908,0.5762096794029716,0.5420247936974568,0.8370473520662057,1.235623925011753,1.841142481256549,1.404562437085894,1.010332588535572,1.245109896457022,1.650929324717439,1.300516372746017,1.126533511795713,1132.637362637363,766.7765567765568,784.1025641025641,807.4725274725275,841.3186813186813,-0.476807,0.051270,0.864929,1.076660,-2.661743,-0.964508,1,1,1,1,1,20.000000
2023-09-28 17:27:35.001,,,,,,,,,,,,,,,,,,,,,,,,,,,,,,,,,,,,,,/muse/elements/jaw_clench
2023-09-28 17:27:35.535,0.230316983484055,0.1196439071146793,0.06155447677244057,-0.2799836349128417,0.9916170879325927,0.2193043855703053,0.1509105507814794,0.741243329892988,0.9238898942737732,0.5762096794029716,0.7140393455174791,0.7683663167471606,1.279805051591088,1.841142481256549,1.425396536466135,1.011299208853834,1.256592128210567,1.650929324717439,1.1404845439071,1.155722957538292,522.6007326007326,795.7875457875458,811.9047619047619,806.2637362637363,846.5567765567765,-0.475708,0.045166,0.867798,1.600037,-3.558960,-0.695343,1,1,1,1,1,20.000000
2023-09-28 17:27:36.384,,,,,,,,,,,,,,,,,,,,,,,,,,,,,,,,,,,,,,/muse/elements/blink
2023-09-28 17:27:36.536,0.3639800259291798,0.1196439071146793,0.05346867815547501,0.6237288364605281,0.8035047537496949,0.2193043855703053,0.1943854643096827,0.6488675634246731,0.8406013975745901,0.5762096794029716,0.63170632031356,0.9024495947998913,1.27973163462263,1.841142481256549,1.428512755133521,1.071244810451643,1.228173712356675,1.650929324717439,1.100222958513731,0.8521308574408896,874.3589743589744,817.948717948718,801.025641025641,792.967032967033,777.2527472527473,-0.471497,0.050781,0.871155,2.130890,-3.820648,-0.717773,1,1,1,1,1,20.000000
2023-09-28 17:27:37.548,0.1065830099625872,-0.4035455536396615,0.2270554153374219,0.539432364596951,0.8643952714581356,0.7566677390022966,0.269207695670739,0.658684159664519,0.6813780338746617,1.186060536217989,0.6292578382886441,0.8508015535386386,1.305008754287775,1.709891708998495,1.278974865012565,1.0559750260668,1.210598096718233,1.765065729923763,1.068007376958451,0.8267008712395295,1148.351648351648,786.1172161172161,775.2380952380953,796.996336996337,830.0366300366301,-0.449219,0.050415,0.878174,2.557068,-3.715973,-2.945862,1,1,1,1,1,20.000000
2023-09-28 17:27:37.668,,,,,,,,,,,,,,,,,,,,,,,,,,,,,,,,,,,,,,/muse/elements/jaw_clench
2023-09-28 17:27:37.778,,,,,,,,,,,,,,,,,,,,,,,,,,,,,,,,,,,,,,/muse/elements/blink
2023-09-28 17:27:38.414,,,,,,,,,,,,,,,,,,,,,,,,,,,,,,,,,,,,,,/muse/elements/jaw_clench
2023-09-28 17:27:38.535,0.1065830099625872,-0.4451906924428458,0.0620617652621958,0.539432364596951,0.8643952714581356,0.7771593998003894,-0.03281746665650153,0.658684159664519,0.6813780338746617,1.180325075033366,0.5912275981670212,0.8508015535386386,1.305008754287775,1.69720605111392,1.320641718492535,1.0559750260668,1.210598096718233,1.794039471092997,1.136214346090476,0.8267008712395295,1061.721611721612,799.8168498168499,773.2234432234433,800.6227106227107,736.5567765567765,-0.452515,0.065552,0.877380,1.719666,-3.932800,0.216827,1,1,1,1,1,20.000000
2023-09-28 17:27:39.184,,,,,,,,,,,,,,,,,,,,,,,,,,,,,,,,,,,,,,/muse/elements/jaw_clench
2023-09-28 17:27:39.272,,,,,,,,,,,,,,,,,,,,,,,,,,,,,,,,,,,,,,/muse/elements/blink
2023-09-28 17:27:39.425,,,,,,,,,,,,,,,,,,,,,,,,,,,,,,,,,,,,,,/muse/elements/jaw_clench
2023-09-28 17:27:39.545,0.1065830099625872,-0.4451906924428458,-0.1307894963261979,0.539432364596951,0.8643952714581356,0.7771593998003894,-0.00370074275221944,0.658684159664519,0.6813780338746617,1.180325075033366,0.373386603789448,0.8508015535386386,1.305008754287775,1.69720605111392,1.483766593251152,1.0559750260668,1.210598096718233,1.794039471092997,1.257702373721341,0.8267008712395295,870.7326007326008,726.0805860805862,808.6813186813187,792.5641025641025,839.3040293040293,-0.446411,0.049805,0.885132,2.093506,-4.127197,-0.665436,1,2,1,1,2,20.000000
2023-09-28 17:27:39.885,,,,,,,,,,,,,,,,,,,,,,,,,,,,,,,,,,,,,,/muse/elements/jaw_clench
2023-09-28 17:27:40.535,0.1065830099625872,-0.4451906924428458,-0.2074922630191774,0.539432364596951,0.8643952714581356,0.7771593998003894,0.1357092593427013,0.658684159664519,0.6813780338746617,1.180325075033366,0.4556134946414968,0.8508015535386386,1.305008754287775,1.69720605111392,1.482741811130013,1.0559750260668,1.210598096718233,1.794039471092997,1.535090711536843,0.8267008712395295,665.6410256410256,841.7216117216118,750.6593406593407,812.7106227106227,666.8498168498169,-0.433960,0.061401,0.888000,2.078552,-2.915955,-0.396271,1,2,1,1,2,20.000000
2023-09-28 17:27:40.647,,,,,,,,,,,,,,,,,,,,,,,,,,,,,,,,,,,,,,/muse/elements/jaw_clench
2023-09-28 17:27:40.911,,,,,,,,,,,,,,,,,,,,,,,,,,,,,,,,,,,,,,/muse/elements/jaw_clench
2023-09-28 17:27:41.111,,,,,,,,,,,,,,,,,,,,,,,,,,,,,,,,,,,,,,/muse/elements/jaw_clench
2023-09-28 17:27:41.535,0.1065830099625872,-0.4451906924428458,-0.227040072200601,0.539432364596951,0.8643952714581356,0.7771593998003894,0.1136684205764943,0.658684159664519,0.6813780338746617,1.180325075033366,0.4740901089575819,0.8508015535386386,1.305008754287775,1.69720605111392,1.480522928809966,1.0559750260668,1.210598096718233,1.794039471092997,1.500907921479871,0.8267008712395295,485.9340659340659,773.2234432234433,787.3260073260074,777.6556776556777,675.3113553113553,-0.437927,0.056274,0.885376,1.734619,-4.388885,-0.014954,1,2,1,1,2,20.000000
2023-09-28 17:27:42.465,,,,,,,,,,,,,,,,,,,,,,,,,,,,,,,,,,,,,,/muse/elements/jaw_clench
2023-09-28 17:27:42.538,0.1065830099625872,-0.4451906924428458,-0.1864644047788875,0.5855819843452894,0.8643952714581356,0.7771593998003894,0.00860792897064396,0.6859815596442023,0.6813780338746617,1.180325075033366,0.6399307924954274,0.5913978861086571,1.305008754287775,1.69720605111392,1.636398680993568,1.556116919595999,1.210598096718233,1.794039471092997,1.489486767401372,1.318086633850844,874.3589743589744,821.5750915750916,792.1611721611722,832.8571428571429,815.934065934066,-0.430298,0.056396,0.889404,1.996307,-1.772003,-1.046753,1,1,1,1,1,20.000000
2023-09-28 17:27:42.553,,,,,,,,,,,,,,,,,,,,,,,,,,,,,,,,,,,,,,/muse/elements/blink
2023-09-28 17:27:43.535,0.1065830099625872,-0.4451906924428458,0.1406344266321922,0.5997959131674026,0.8643952714581356,0.7771593998003894,0.07725545156133203,0.6144281080256148,0.6813780338746617,1.180325075033366,0.5965369970497632,0.5884267612462452,1.305008754287775,1.69720605111392,1.449615252962552,1.579157119415228,1.210598096718233,1.794039471092997,1.243508301969873,1.348446057791581,709.9633699633699,767.1794871794872,790.5494505494506,826.4102564102565,628.1684981684982,-0.426880,0.058105,0.891602,2.654266,-3.760834,-0.904694,1,1,1,1,1,20.000000
2023-09-28 17:27:43.878,,,,,,,,,,,,,,,,,,,,,,,,,,,,,,,,,,,,,,/muse/elements/jaw_clench
2023-09-28 17:27:44.536,0.1065830099625872,-0.4451906924428458,0.2593891059985428,0.5997959131674026,0.8643952714581356,0.7771593998003894,0.05092044239553667,0.6144281080256148,0.6813780338746617,1.180325075033366,0.5453778721342435,0.5884267612462452,1.305008754287775,1.69720605111392,1.349529636640559,1.579157119415228,1.210598096718233,1.794039471092997,1.171043038379333,1.348446057791581,481.0989010989011,851.3919413919414,778.8644688644689,756.7032967032967,713.1868131868132,-0.438110,0.055237,0.885437,1.697235,-4.134674,0.022430,1,1,1,1,1,20.000000
2023-09-28 17:27:44.766,,,,,,,,,,,,,,,,,,,,,,,,,,,,,,,,,,,,,,/muse/elements/jaw_clench
2023-09-28 17:27:45.535,0.1065830099625872,-0.4451906924428458,-0.1845098419384216,0.5997959131674026,0.8643952714581356,0.7771593998003894,0.03115917233575316,0.6144281080256148,0.6813780338746617,1.180325075033366,0.6218851295154766,0.5884267612462452,1.305008754287775,1.69720605111392,1.35914884957211,1.579157119415228,1.210598096718233,1.794039471092997,1.587066116935,1.348446057791581,890.4761904761905,738.974358974359,784.1025641025641,761.941391941392,867.1062271062272,-0.442688,0.052002,0.890442,1.712189,-2.534637,-1.114044,1,2,1,1,2,20.000000
2023-09-28 17:27:45.599,,,,,,,,,,,,,,,,,,,,,,,,,,,,,,,,,,,,,,/muse/elements/jaw_clench
2023-09-28 17:27:46.541,0.4012002631278077,-0.4451906924428458,-0.01537782916398017,0.5997959131674026,1.032263821023755,0.7771593998003894,0.1607368513928146,0.6144281080256148,1.205443898568858,1.180325075033366,0.566681426386011,0.5884267612462452,1.191902322557532,1.69720605111392,1.431109089753425,1.579157119415228,1.626498597281628,1.794039471092997,1.427490323795109,1.348446057791581,708.7545787545788,745.0183150183151,809.8901098901099,784.5054945054945,726.8864468864469,-0.438416,0.058228,0.887817,2.003784,-2.818756,-1.300964,1,1,1,1,1,20.000000
2023-09-28 17:27:46.924,,,,,,,,,,,,,,,,,,,,,,,,,,,,,,,,,,,,,,/muse/elements/jaw_clench
2023-09-28 17:27:47.432,,,,,,,,,,,,,,,,,,,,,,,,,,,,,,,,,,,,,,/muse/elements/jaw_clench
2023-09-28 17:27:47.536,0.2309642246294016,-0.4451906924428458,0.002014880781755846,-0.06374892946514145,0.7641551144284268,0.7771593998003894,0.08396209819027041,0.5316141596041575,1.205443898568858,1.180325075033366,0.6483232062722059,0.8556616760847847,1.18114102633347,1.69720605111392,1.419462367793271,1.156844512235299,1.590965647539845,1.794039471092997,1.377634283206182,1.417201765436916,562.0879120879121,773.6263736263736,823.1868131868132,775.2380952380953,718.8278388278388,-0.458496,0.055847,0.877258,1.061707,-2.878571,-0.269165,1,1,1,1,1,20.000000
2023-09-28 17:27:47.720,,,,,,,,,,,,,,,,,,,,,,,,,,,,,,,,,,,,,,/muse/elements/jaw_clench
2023-09-28 17:27:48.536,0.3274131087310385,-0.4451906924428458,-0.003783462052678021,0.2273210383817323,0.6162954644353543,0.7771593998003894,-0.111250752589309,0.3997825275257983,0.7508625785060439,1.180325075033366,0.5823102078266407,0.453263612805712,1.363483337839924,1.69720605111392,1.505382920044107,1.24423212889197,1.372629771011114,1.794039471092997,1.406880967047078,1.345746423993502,996.0439560439561,824.7985347985348,823.992673992674,800.6227106227107,843.3333333333334,-0.445862,0.064819,0.879456,2.347717,-2.796326,-1.196289,1,1,1,1,1,20.000000
2023-09-28 17:27:48.560,,,,,,,,,,,,,,,,,,,,,,,,,,,,,,,,,,,,,,/muse/elements/jaw_clench
2023-09-28 17:27:48.737,,,,,,,,,,,,,,,,,,,,,,,,,,,,,,,,,,,,,,/muse/elements/jaw_clench
2023-09-28 17:27:49.162,,,,,,,,,,,,,,,,,,,,,,,,,,,,,,,,,,,,,,/muse/elements/jaw_clench
2023-09-28 17:27:49.536,,,,,,,,,,,,,,,,,,,,,,,,,,,,,,,,,,,,,,/muse/elements/blink
2023-09-28 17:27:49.544,0.4308091621277104,-0.4451906924428458,0.2834142689779494,0.4144095945773582,0.6644207683132859,0.7771593998003894,-0.1078961888554995,0.52300535870859,0.6874734081171612,1.180325075033366,0.2333071134937269,0.3725267810317334,1.496774843791187,1.69720605111392,1.598446397700002,1.420661082873084,1.242864706150903,1.794039471092997,1.306743920835032,1.429334062836514,1221.684981684982,740.5860805860806,827.6190476190476,804.2490842490843,851.7948717948718,-0.434998,0.061035,0.881226,1.772003,-3.887939,-0.127106,1,1,1,1,1,20.000000
2023-09-28 17:27:50.158,,,,,,,,,,,,,,,,,,,,,,,,,,,,,,,,,,,,,,/muse/elements/jaw_clench
2023-09-28 17:27:50.382,,,,,,,,,,,,,,,,,,,,,,,,,,,,,,,,,,,,,,/muse/elements/jaw_clench
2023-09-28 17:27:50.545,0.4308091621277104,-0.4451906924428458,0.005449971445454888,0.4144095945773582,0.6644207683132859,0.7771593998003894,-0.0377019687001708,0.52300535870859,0.6874734081171612,1.180325075033366,0.6677337572454398,0.3725267810317334,1.496774843791187,1.69720605111392,1.515031646651603,1.420661082873084,1.242864706150903,1.794039471092997,1.496920886974699,1.429334062836514,1130.622710622711,815.1282051282052,795.3846153846154,762.3443223443223,882.014652014652,-0.447083,0.058044,0.877441,1.891632,-4.179535,-0.717773,1,1,1,1,1,20.000000
2023-09-28 17:27:50.580,,,,,,,,,,,,,,,,,,,,,,,,,,,,,,,,,,,,,,/muse/elements/jaw_clench
2023-09-28 17:27:51.308,,,,,,,,,,,,,,,,,,,,,,,,,,,,,,,,,,,,,,/muse/elements/jaw_clench
2023-09-28 17:27:51.545,-0.2460429965069952,-0.4451906924428458,-0.06671257193482669,0.1214807711856169,0.3386932555080688,0.7771593998003894,0.04920526757111199,0.5484362695170705,0.896549460741913,1.180325075033366,0.559121597916023,1.028937523725777,0.9585974369264891,1.69720605111392,1.469309476698731,1.402771994525957,1.164592988678772,1.794039471092997,1.413191442319338,1.18113064339999,489.5604395604396,797.3992673992674,767.1794871794872,823.992673992674,562.0879120879121,-0.454468,0.057434,0.874878,1.480408,-1.936493,-1.203766,1,1,1,1,1,20.000000
2023-09-28 17:27:52.546,-0.2533222350432289,-0.4451906924428458,-0.223896262744984,0.3933058832704076,0.3059106469546929,0.7771593998003894,-0.01282190366320494,0.5701562826134791,0.8828837380545729,1.180325075033366,0.604091958145682,0.9547857549522606,0.9816202010942378,1.69720605111392,1.407622800675292,1.365696334827968,1.135176680057318,1.794039471092997,1.350286144119803,1.155976674218337,540.3296703296703,804.6520146520147,809.0842490842491,777.6556776556777,678.1318681318681,-0.443542,0.052368,0.882690,2.071075,-3.678589,-0.142059,1,1,1,1,1,20.000000
2023-09-28 17:27:52.912,,,,,,,,,,,,,,,,,,,,,,,,,,,,,,,,,,,,,,/muse/elements/jaw_clench
2023-09-28 17:27:53.110,,,,,,,,,,,,,,,,,,,,,,,,,,,,,,,,,,,,,,/muse/elements/jaw_clench
2023-09-28 17:27:53.533,,,,,,,,,,,,,,,,,,,,,,,,,,,,,,,,,,,,,,/muse/elements/jaw_clench
2023-09-28 17:27:53.543,-0.2533222350432289,-0.4451906924428458,-0.1799385845799273,0.8560955081916705,0.3059106469546929,0.7771593998003894,0.05585562096110683,0.8549645345332364,0.8828837380545729,1.180325075033366,0.6731160987000246,1.03228916068608,0.9816202010942378,1.69720605111392,1.362133740381973,1.291980692062669,1.135176680057318,1.794039471092997,1.222354635068123,1.070935262555402,357.8021978021978,755.4945054945055,788.1318681318681,760.7326007326008,617.2893772893773,-0.457581,0.049744,0.880676,1.652374,-3.401947,-0.299072,1,1,1,1,1,20.000000
2023-09-28 17:27:54.536,0.251136714380074,-0.4451906924428458,-0.2668125639219605,0.5781673028538165,0.432357648217649,0.7771593998003894,-0.007813767745410432,0.768127968836207,0.9797663105653357,1.180325075033366,0.5319018017461755,1.040068541325534,1.285076215273276,1.69720605111392,1.377910763773968,1.189992462204865,1.143996778732791,1.794039471092997,1.344362732316269,0.9566513866787034,420.2564102564103,766.7765567765568,823.992673992674,816.3369963369963,648.3150183150183,-0.453613,0.055481,0.877686,1.958923,-1.958923,-0.807495,1,1,1,1,1,20.000000
2023-09-28 17:27:54.649,,,,,,,,,,,,,,,,,,,,,,,,,,,,,,,,,,,,,,/muse/elements/blink
2023-09-28 17:27:54.758,,,,,,,,,,,,,,,,,,,,,,,,,,,,,,,,,,,,,,/muse/elements/jaw_clench
2023-09-28 17:27:55.385,,,,,,,,,,,,,,,,,,,,,,,,,,,,,,,,,,,,,,/muse/elements/jaw_clench
2023-09-28 17:27:55.536,0.251136714380074,-0.4451906924428458,-0.07126630441069236,-0.4068111478918912,0.432357648217649,0.7771593998003894,0.08254864741155243,0.5592141002052018,0.9797663105653357,1.180325075033366,0.6269473204180355,0.8769201664209787,1.285076215273276,1.69720605111392,1.430367608935864,1.079799233913998,1.143996778732791,1.794039471092997,1.43576983288393,0.813275122740945,455.3113553113553,780.0732600732601,826.4102564102565,825.2014652014652,572.967032967033,-0.446350,0.063110,0.883911,2.400055,-3.035583,-0.351410,1,1,1,1,1,20.000000
2023-09-28 17:27:55.747,,,,,,,,,,,,,,,,,,,,,,,,,,,,,,,,,,,,,,/muse/elements/jaw_clench
2023-09-28 17:27:56.536,0.875549252227751,-0.4451906924428458,0.190481855968299,0.6759914532899362,0.6515220335854529,0.7771593998003894,0.1418965044343294,0.5247735026184737,0.9279946125546702,1.180325075033366,0.5870293079038894,0.7039528314694412,1.155415722154716,1.69720605111392,1.558591388429667,1.306068848205969,1.297056255823148,1.794039471092997,1.48433411838055,1.256002858179177,390.4395604395605,786.1172161172161,795.7875457875458,787.7289377289378,580.2197802197802,-0.445435,0.054443,0.884216,2.033691,-3.558960,-0.433655,1,1,1,1,1,20.000000
2023-09-28 17:27:56.592,,,,,,,,,,,,,,,,,,,,,,,,,,,,,,,,,,,,,,/muse/elements/jaw_clench
2023-09-28 17:27:56.769,,,,,,,,,,,,,,,,,,,,,,,,,,,,,,,,,,,,,,/muse/elements/jaw_clench
2023-09-28 17:27:57.297,,,,,,,,,,,,,,,,,,,,,,,,,,,,,,,,,,,,,,/muse/elements/jaw_clench
2023-09-28 17:27:57.536,0.5890923908716859,-0.4451906924428458,-0.2279851434069885,0.4894967834166861,0.6392224503977787,0.7771593998003894,0.1237189007980225,0.6862481407343993,0.8935965247655648,1.180325075033366,0.4317273707589783,1.027618067137261,1.092159940265385,1.69720605111392,1.312367955940158,1.222374261691096,1.099625050830096,1.794039471092997,1.312142397958526,1.228084215832183,361.0256410256411,777.2527472527473,765.1648351648352,786.1172161172161,657.5824175824176,-0.456116,0.054565,0.878967,2.026215,-1.644897,-0.852356,1,1,1,1,1,20.000000
2023-09-28 17:27:58.535,0.5587928008978709,-0.4451906924428458,-0.1486327312010628,0.5534994907898944,0.8814004178431395,0.7771593998003894,0.1965682623290349,0.7639130119455265,0.7942342439547277,1.180325075033366,0.3605999235993289,0.9635636383679101,1.183681673949783,1.69720605111392,1.324413688277177,1.216069872763709,1.147890068409444,1.794039471092997,1.261220126795702,1.216042200315606,377.1428571428572,839.3040293040293,805.8608058608058,791.3553113553114,489.5604395604396,-0.449158,0.049133,0.877136,1.420593,-3.910370,0.142059,1,1,1,1,1,20.000000
2023-09-28 17:27:58.693,,,,,,,,,,,,,,,,,,,,,,,,,,,,,,,,,,,,,,/muse/elements/jaw_clench
2023-09-28 17:27:59.533,,,,,,,,,,,,,,,,,,,,,,,,,,,,,,,,,,,,,,/muse/elements/jaw_clench
2023-09-28 17:27:59.543,0.6233480693920941,-0.4451906924428458,0.03939649960419352,0.5160582090209305,0.6880277282541465,0.7771593998003894,0.2236096907551782,0.6307183408982452,0.9885797252540205,1.180325075033366,0.8361354343298204,0.9383586911620048,1.079193465127485,1.69720605111392,1.619971932366826,1.173150483233494,1.207539030324888,1.794039471092997,1.268046056326828,1.190199347681251,530.6593406593407,794.1758241758242,809.4871794871796,799.4139194139194,641.4652014652015,-0.451538,0.046875,0.874878,1.958923,-3.372040,-1.532745,1,1,1,1,1,20.000000
2023-09-28 17:27:59.732,,,,,,,,,,,,,,,,,,,,,,,,,,,,,,,,,,,,,,/muse/elements/jaw_clench
2023-09-28 17:28:00.540,0.7013118900747551,-0.4451906924428458,0.1606601828479648,0.497212114830223,0.7966998023990876,0.7771593998003894,0.212211857626526,0.748328175978129,1.264688893691287,1.180325075033366,0.7632451485802983,0.9821963650118052,1.23712111563885,1.69720605111392,1.608703433463279,1.069134227925473,1.236912411691634,1.794039471092997,1.289619207769155,1.11467131893317,438.3882783882784,783.6996336996338,821.5750915750916,755.0915750915751,596.3369963369963,-0.453918,0.066162,0.875977,1.330872,-1.861725,-0.194397,1,1,1,1,1,20.000000
2023-09-28 17:28:01.034,,,,,,,,,,,,,,,,,,,,,,,,,,,,,,,,,,,,,,/muse/elements/jaw_clench
2023-09-28 17:28:01.536,0.5494963156965209,-0.4451906924428458,0.1008304010450532,0.3494795781904307,0.8123090517605891,0.7771593998003894,0.1409118743964725,0.6796249844902432,1.234675251078312,1.180325075033366,0.5347938635640352,0.6539930726841214,1.251823334262329,1.69720605111392,1.559391065859703,1.165613081445437,1.181428534080669,1.794039471092997,1.204361750260053,0.9119544347042894,386.007326007326,799.4139194139194,807.4725274725275,788.9377289377289,680.1465201465202,-0.450256,0.051025,0.880737,2.093506,-3.229980,1.181335,1,1,1,1,1,20.000000
2023-09-28 17:28:01.846,,,,,,,,,,,,,,,,,,,,,,,,,,,,,,,,,,,,,,/muse/elements/blink
2023-09-28 17:28:01.846,,,,,,,,,,,,,,,,,,,,,,,,,,,,,,,,,,,,,,/muse/elements/jaw_clench
2023-09-28 17:28:02.067,,,,,,,,,,,,,,,,,,,,,,,,,,,,,,,,,,,,,,/muse/elements/jaw_clench
2023-09-28 17:28:02.243,,,,,,,,,,,,,,,,,,,,,,,,,,,,,,,,,,,,,,/muse/elements/jaw_clench
2023-09-28 17:28:02.441,,,,,,,,,,,,,,,,,,,,,,,,,,,,,,,,,,,,,,/muse/elements/jaw_clench
2023-09-28 17:28:02.537,0.3279829959089637,-0.4451906924428458,-0.1657556919044197,0.6005840234705494,0.6333384617325367,0.7771593998003894,0.04827212397961662,0.6127237295486992,0.6973180092736654,1.180325075033366,0.4849784984409353,0.3933154551986761,1.305843888419091,1.69720605111392,1.545379358979385,1.32730370882927,1.169705192934808,1.794039471092997,1.268126086152774,0.7353290438455521,726.8864468864469,759.5238095238095,785.3113553113553,790.5494505494506,671.2820512820513,-0.453979,0.059509,0.878967,2.213135,-3.648682,-0.186920,1,1,1,1,1,20.000000
2023-09-28 17:28:03.536,0.165205316497827,-0.4451906924428458,-0.1642471771603272,0.5363483287244113,0.377565581501759,0.7771593998003894,-0.4023320347458781,0.3373777313010992,0.6912360726339781,1.180325075033366,0.4918993809329045,0.5507208427230749,1.311797021660147,1.69720605111392,1.490217342124406,1.158339718030573,1.21625713992563,1.794039471092997,1.298425527004952,1.214924799381182,383.992673992674,776.4468864468864,799.0109890109891,763.956043956044,599.5604395604396,-0.449036,0.056885,0.874573,2.325287,-1.988831,-1.196289,1,1,1,1,1,20.000000
2023-09-28 17:28:04.181,,,,,,,,,,,,,,,,,,,,,,,,,,,,,,,,,,,,,,/muse/elements/jaw_clench
2023-09-28 17:28:04.420,,,,,,,,,,,,,,,,,,,,,,,,,,,,,,,,,,,,,,/muse/elements/jaw_clench
2023-09-28 17:28:04.541,0.165205316497827,-0.4451906924428458,-0.1857388622126256,0.3292688222372694,0.377565581501759,0.7771593998003894,-0.1363917366964389,0.4803210613065506,0.6912360726339781,1.180325075033366,0.5431914866677583,0.6553128473690178,1.311797021660147,1.69720605111392,1.36659674845552,1.180506840586125,1.21625713992563,1.794039471092997,1.318171869733131,1.128985035166949,346.9230769230769,814.7252747252747,767.1794871794872,783.2967032967033,697.0695970695971,-0.450745,0.060059,0.878906,1.532745,-3.715973,-0.239258,1,1,1,1,1,20.000000
2023-09-28 17:28:05.536,0.165205316497827,-0.4451906924428458,-0.2168786007752121,0.436836473910009,0.377565581501759,0.7771593998003894,-0.0821248899364989,0.5132177077345063,0.6912360726339781,1.180325075033366,0.5373212030648711,0.9971695540940526,1.311797021660147,1.69720605111392,1.39991596281231,1.228859459522884,1.21625713992563,1.794039471092997,1.290314059568323,1.072490046922994,641.0622710622711,795.3846153846154,791.3553113553114,760.7326007326008,759.5238095238095,-0.446655,0.058289,0.879761,2.228088,-4.000092,-0.463562,1,1,1,1,1,20.000000
2023-09-28 17:28:06.231,,,,,,,,,,,,,,,,,,,,,,,,,,,,,,,,,,,,,,/muse/elements/jaw_clench
2023-09-28 17:28:06.536,0.3702481826908783,-0.4451906924428458,-0.2061645770521002,0.3005360461156084,0.7278371379993486,0.7771593998003894,0.2056667170245176,0.3604702830603253,1.020607395102342,1.180325075033366,0.4194943004928726,0.9680114459399819,1.176153305675331,1.69720605111392,1.568340889331308,1.280897175378301,1.105489326273437,1.794039471092997,1.264045481709279,1.037955126872545,563.2967032967033,730.5128205128206,832.8571428571429,801.4285714285714,597.948717948718,-0.461365,0.069580,0.877136,1.973877,-2.415009,-0.657959,1,1,1,1,1,20.000000
2023-09-28 17:28:06.938,,,,,,,,,,,,,,,,,,,,,,,,,,,,,,,,,,,,,,/muse/elements/jaw_clench
2023-09-28 17:28:07.540,0.4647281401258471,-0.4451906924428458,-0.1960911555076155,0.5042274547741654,0.9197173270289454,0.7771593998003894,0.2304219209761012,0.9598584344476614,1.001010695944024,1.180325075033366,0.3102653489160021,0.6837612204870438,1.270679037496347,1.69720605111392,1.517706220889336,1.255194840723391,1.109428062121032,1.794039471092997,1.311193532040374,0.9896467701065763,475.8608058608059,836.8864468864469,832.8571428571429,776.8498168498169,591.0989010989011,-0.451538,0.062378,0.876831,1.637421,-3.484192,-0.216827,1,1,1,1,1,20.000000
2023-09-28 17:28:08.536,0.5436648181232542,-0.4451906924428458,-0.1773699000195554,0.5574623850220716,1.040636310339534,0.7771593998003894,0.1586511892178371,0.9554540718134893,0.9615459920169137,1.180325075033366,0.08251595700635574,0.627209998601852,1.307460218474379,1.69720605111392,1.394633884437376,1.27107649100196,1.126156573525932,1.794039471092997,1.260438601744237,0.8942379195486762,437.1794871794872,776.8498168498169,787.3260073260074,769.5970695970697,558.0586080586081,-0.456299,0.062622,0.873291,2.265472,-3.753357,-0.942078,1,1,1,1,1,20.000000
2023-09-28 17:28:08.963,,,,,,,,,,,,,,,,,,,,,,,,,,,,,,,,,,,,,,/muse/elements/jaw_clench
2023-09-28 17:28:09.536,0.6279010442192527,-0.4451906924428458,-0.3170248701819408,0.846303055268719,0.8890204871405283,0.7771593998003894,0.1363363641466672,0.5687118621592907,0.8824314689789962,1.180325075033366,0.08251595700635574,0.4579047142165647,1.189508573103527,1.69720605111392,1.425245170958221,1.237216266209281,1.273645382344187,1.794039471092997,1.270154478608355,1.276747572506089,838.0952380952381,782.893772893773,794.981684981685,811.9047619047619,812.7106227106227,-0.462402,0.056702,0.879150,2.183228,-2.669220,-0.149536,1,1,1,1,1,20.000000
2023-09-28 17:28:09.890,,,,,,,,,,,,,,,,,,,,,,,,,,,,,,,,,,,,,,/muse/elements/blink
2023-09-28 17:28:09.890,,,,,,,,,,,,,,,,,,,,,,,,,,,,,,,,,,,,,,/muse/elements/jaw_clench
2023-09-28 17:28:10.535,0.5474675639004687,-0.4451906924428458,-0.3170248701819408,0.7818388654792596,0.9257559985930455,0.7771593998003894,0.1363363641466672,0.5611155496154002,0.9017269352848361,1.180325075033366,0.08251595700635574,0.4861654899107892,1.249505675662657,1.69720605111392,1.425245170958221,1.171550462373437,1.354772354728792,1.794039471092997,1.270154478608355,1.363118605488616,816.7399267399268,800.2197802197802,771.2087912087912,805.4578754578755,744.6153846153846,-0.449097,0.061584,0.874512,1.600037,-3.910370,0.007477,1,1,1,1,1,20.000000
2023-09-28 17:28:10.704,,,,,,,,,,,,,,,,,,,,,,,,,,,,,,,,,,,,,,/muse/elements/jaw_clench
2023-09-28 17:28:10.881,,,,,,,,,,,,,,,,,,,,,,,,,,,,,,,,,,,,,,/muse/elements/jaw_clench
2023-09-28 17:28:11.535,0.7080034916201425,-0.4451906924428458,0.04076955164997545,0.4230172402731923,0.9155063802570489,0.7771593998003894,0.07981670242694833,0.7334134182859268,0.7529286068859485,1.180325075033366,0.4948990569726039,0.6641092096313929,1.362856863911632,1.69720605111392,1.475535879447097,1.163863431122407,1.305068059972328,1.794039471092997,1.335921872653989,1.278676430721599,746.2271062271062,759.1208791208792,831.2454212454213,770,722.4542124542124,-0.457458,0.058105,0.879333,1.622467,-3.140259,-1.248627,1,1,1,1,1,20.000000
2023-09-28 17:28:12.428,,,,,,,,,,,,,,,,,,,,,,,,,,,,,,,,,,,,,,/muse/elements/jaw_clench
2023-09-28 17:28:12.536,0.6315968942670068,-0.4451906924428458,0.03065523957685857,0.4881010948942938,0.7583534572581944,0.7771593998003894,0.1431101122697223,0.7817069796551688,0.9292611802104661,1.180325075033366,0.6884186354997744,0.8414539397765888,1.289173467782956,1.69720605111392,1.469047160332532,1.227926728549666,1.194126227162186,1.794039471092997,1.140377085610226,1.216113870105871,912.2344322344322,783.2967032967033,820.7692307692308,817.1428571428571,806.2637362637363,-0.459961,0.066528,0.873596,1.510315,-2.908478,-0.613098,1,1,1,1,1,20.000000
2023-09-28 17:28:12.626,,,,,,,,,,,,,,,,,,,,,,,,,,,,,,,,,,,,,,/muse/elements/jaw_clench
2023-09-28 17:28:12.936,,,,,,,,,,,,,,,,,,,,,,,,,,,,,,,,,,,,,,/muse/elements/jaw_clench
2023-09-28 17:28:13.406,,,,,,,,,,,,,,,,,,,,,,,,,,,,,,,,,,,,,,/muse/elements/jaw_clench
2023-09-28 17:28:13.536,0.5547276736102693,-0.4451906924428458,0.07978189773837528,0.5260143161482983,0.4794249178681259,0.7771593998003894,0.09955568488927874,0.8127235287646836,0.7562476240978913,1.180325075033366,0.7209935654714599,0.767306464894651,1.241890132078701,1.69720605111392,1.586739423782085,1.282255034663618,1.084580182623949,1.794039471092997,1.162087322386121,1.124849113610883,886.4468864468864,759.92673992674,792.1611721611722,778.8644688644689,760.3296703296703,-0.458740,0.054260,0.876709,2.422485,-2.975769,-0.822449,1,1,1,1,1,20.000000
2023-09-28 17:28:14.536,0.3066290585722116,-0.4451906924428458,0.05469083320366372,0.5071338764011898,1.032713622000446,0.7771593998003894,0.03452867511609019,0.9182958410170278,1.106036432201413,1.180325075033366,0.5076129961502778,0.9361559759474123,1.050655294429813,1.69720605111392,1.504534729431707,1.01463127408832,1.174980522818847,1.794039471092997,1.224278691804073,1.155681607571041,871.941391941392,768.7912087912088,810.2930402930403,784.5054945054945,836.0805860805862,-0.454956,0.057861,0.876221,1.996307,-3.828125,-0.471039,1,1,4,1,1,20.000000
2023-09-28 17:28:14.546,,,,,,,,,,,,,,,,,,,,,,,,,,,,,,,,,,,,,,/muse/elements/jaw_clench
2023-09-28 17:28:15.540,0.5275519656077938,-0.4451906924428458,-0.04198907652028248,0.3507357370327996,1.017696496742415,0.7771593998003894,0.3560923534253432,0.8327230307345844,1.109689642394768,1.180325075033366,0.6328123847721154,0.8514329380180673,1.100422304911091,1.69720605111392,1.107094084326622,1.148253048529166,1.047753822095018,1.794039471092997,0.8221104066105592,1.010607489572691,1171.318681318681,767.985347985348,801.4285714285714,823.1868131868132,943.6630036630037,-0.460754,0.057739,0.873840,1.764526,-3.992615,-0.261688,1,1,1,1,1,20.000000
2023-09-28 17:28:16.361,,,,,,,,,,,,,,,,,,,,,,,,,,,,,,,,,,,,,,/muse/elements/jaw_clench
2023-09-28 17:28:16.536,0.6843601323351268,-0.4451906924428458,0.0253430778067592,0.6075582198890129,0.9105266908366662,0.7771593998003894,0.1781885505563042,0.6868217812202562,1.022845631570558,1.180325075033366,0.6357618571438823,0.7785452608985521,1.1519139635915,1.69720605111392,1.329445236183275,1.18704874177589,1.056549809110602,1.794039471092997,1.233107258783267,0.9704024363915952,1227.326007326007,821.5750915750916,813.1135531135532,848.5714285714286,844.5421245421246,-0.459900,0.057922,0.875671,1.592560,-2.347717,-0.485992,1,1,1,1,1,20.000000
2023-09-28 17:28:16.688,,,,,,,,,,,,,,,,,,,,,,,,,,,,,,,,,,,,,,/muse/elements/jaw_clench
2023-09-28 17:28:16.867,,,,,,,,,,,,,,,,,,,,,,,,,,,,,,,,,,,,,,/muse/elements/jaw_clench
2023-09-28 17:28:17.538,0.5892367332363907,-0.4451906924428458,-0.1358551463259307,0.6173063855145771,0.6763403712864081,0.7771593998003894,0.04226153320367455,0.6059700353247454,1.081764317695808,1.180325075033366,0.6962592629963847,0.8989486892203644,1.133394596894791,1.69720605111392,1.405364586685321,1.232165849341843,1.119023231645004,1.794039471092997,1.229655990917781,1.076678206655913,1166.080586080586,834.4688644688645,776.4468864468864,817.948717948718,852.1978021978023,-0.452454,0.056580,0.878357,1.764526,-3.499146,0.598145,1,1,1,1,1,20.000000
2023-09-28 17:28:17.945,,,,,,,,,,,,,,,,,,,,,,,,,,,,,,,,,,,,,,/muse/elements/jaw_clench
2023-09-28 17:28:18.104,,,,,,,,,,,,,,,,,,,,,,,,,,,,,,,,,,,,,,/muse/elements/jaw_clench
2023-09-28 17:28:18.538,0.7274096123989072,-0.4451906924428458,-0.2871784795855661,0.6825182509436136,0.7231625660623704,0.7771593998003894,0.136286774973848,0.4781820316398908,1.135555927738953,1.180325075033366,0.6623422218697735,0.8136327914368235,1.226680964635111,1.69720605111392,1.329201970512738,1.279371074298427,1.218729503729153,1.794039471092997,1.295888151080878,0.9416716376449065,1214.835164835165,792.1611721611722,797.3992673992674,843.7362637362637,847.7655677655678,-0.457642,0.066406,0.873108,1.734619,-3.386993,0.127106,1,1,1,1,1,20.000000
2023-09-28 17:28:19.322,,,,,,,,,,,,,,,,,,,,,,,,,,,,,,,,,,,,,,/muse/elements/blink
2023-09-28 17:28:19.410,,,,,,,,,,,,,,,,,,,,,,,,,,,,,,,,,,,,,,/muse/elements/jaw_clench
2023-09-28 17:28:19.536,0.3946767543570774,-0.1678030176989441,-0.3888874823933259,0.5423970122543603,0.8638252791151113,0.6524259602974194,0.05961787403318591,0.6481495859433117,1.166311932899295,1.030068797204565,0.6157799486320957,0.8874977893269276,1.073153271104053,1.776705864297131,1.589396261903658,1.093076912428599,1.236967460704881,1.867910095672229,1.324718694402201,1.073376355686692,1162.454212454212,744.2124542124542,790.1465201465202,792.1611721611722,981.5384615384615,-0.457947,0.069214,0.877319,1.966400,-2.564545,-0.568237,1,1,4,1,1,20.000000
2023-09-28 17:28:20.242,,,,,,,,,,,,,,,,,,,,,,,,,,,,,,,,,,,,,,/muse/elements/jaw_clench
2023-09-28 17:28:20.462,,,,,,,,,,,,,,,,,,,,,,,,,,,,,,,,,,,,,,/muse/elements/blink
2023-09-28 17:28:20.541,0.2364937774962669,-0.1395250247812614,0.00714130141429964,0.3470731757283926,0.8925808112553176,0.7244471800680291,0.2406191413371878,0.7419671896660525,1.086992973973113,1.024665901676141,0.6956832730510779,0.8776914534200386,1.035991952769656,1.782314184701115,1.494108658171488,1.048111981547352,1.103281379250159,1.877963507306689,1.224270169235551,1.193193018799971,901.7582417582418,817.5457875457876,811.0989010989011,829.2307692307693,722.4542124542124,-0.457581,0.064575,0.876282,2.026215,-3.566437,0.037384,1,1,1,1,1,20.000000
2023-09-28 17:28:20.860,,,,,,,,,,,,,,,,,,,,,,,,,,,,,,,,,,,,,,/muse/elements/jaw_clench
2023-09-28 17:28:21.328,,,,,,,,,,,,,,,,,,,,,,,,,,,,,,,,,,,,,,/muse/elements/blink
2023-09-28 17:28:21.536,0.2364937774962669,-0.1395250247812614,-0.1436385314099621,0.3470731757283926,0.8925808112553176,0.7244471800680291,0.1992340191071355,0.7419671896660525,1.086992973973113,1.024665901676141,0.7607723284530499,0.8776914534200386,1.035991952769656,1.782314184701115,1.396411054568039,1.048111981547352,1.103281379250159,1.877963507306689,1.183128603979887,1.193193018799971,965.8241758241759,815.5311355311355,741.3919413919414,846.5567765567765,745.8241758241759,-0.565063,0.070740,0.823364,4.000092,-7.192688,1.016846,1,1,1,1,1,20.000000
2023-09-28 17:28:22.537,0.2364937774962669,-0.1395250247812614,-0.2562006827271299,0.3470731757283926,0.8925808112553176,0.7244471800680291,0.2516246821440926,0.7419671896660525,1.086992973973113,1.024665901676141,0.7550348857067513,0.8776914534200386,1.035991952769656,1.782314184701115,1.466451383611526,1.048111981547352,1.103281379250159,1.877963507306689,1.213255095558168,1.193193018799971,1023.443223443223,743.8095238095239,805.0549450549451,798.6080586080586,833.6630036630037,-0.542847,0.108459,0.826233,1.779480,-5.435638,0.852356,1,2,4,1,2,20.000000
2023-09-28 17:28:23.535,0.2364937774962669,-0.1395250247812614,-0.2562006827271299,0.3470731757283926,0.8925808112553176,0.7244471800680291,0.2516246821440926,0.7419671896660525,1.086992973973113,1.024665901676141,0.7550348857067513,0.8776914534200386,1.035991952769656,1.782314184701115,1.466451383611526,1.048111981547352,1.103281379250159,1.877963507306689,1.213255095558168,1.193193018799971,1104.432234432235,800.6227106227107,817.5457875457876,783.2967032967033,720.8424908424909,-0.537170,0.116089,0.818237,2.444916,-2.557068,0.014954,1,2,1,1,2,20.000000
2023-09-28 17:28:24.544,0.2364937774962669,-0.1395250247812614,-0.2562006827271299,0.3470731757283926,0.8925808112553176,0.7244471800680291,0.2516246821440926,0.7419671896660525,1.086992973973113,1.024665901676141,0.7550348857067513,0.8776914534200386,1.035991952769656,1.782314184701115,1.466451383611526,1.048111981547352,1.103281379250159,1.877963507306689,1.213255095558168,1.193193018799971,701.5018315018315,741.7948717948718,765.5677655677656,807.8754578754579,752.2710622710623,-0.532959,0.118042,0.825256,1.286011,-4.239349,-0.396271,1,2,1,1,2,20.000000
2023-09-28 17:28:24.910,,,,,,,,,,,,,,,,,,,,,,,,,,,,,,,,,,,,,,/muse/elements/jaw_clench
2023-09-28 17:28:25.536,0.2228900755211008,-0.1395250247812614,-0.2562006827271299,0.2560867203995853,0.9086793315015952,0.7244471800680291,0.2516246821440926,0.5989936548709569,0.8825091726738784,1.024665901676141,0.7550348857067513,0.7319806608951567,1.244655617916629,1.782314184701115,1.466451383611526,1.232410809429134,1.338998549630296,1.877963507306689,1.213255095558168,1.252533910609541,776.4468864468864,770.4029304029305,786.5201465201466,796.996336996337,645.4945054945055,-0.535889,0.124756,0.827942,1.480408,-3.394470,-2.392578,1,1,1,1,1,20.000000
2023-09-28 17:28:26.018,,,,,,,,,,,,,,,,,,,,,,,,,,,,,,,,,,,,,,/muse/elements/jaw_clench
2023-09-28 17:28:26.199,,,,,,,,,,,,,,,,,,,,,,,,,,,,,,,,,,,,,,/muse/elements/jaw_clench
2023-09-28 17:28:26.546,0.3127946680187973,-0.1395250247812614,-0.2562006827271299,0.4638641217231975,0.9480831146819937,0.7244471800680291,0.2516246821440926,0.747640175647825,0.9219478698738898,1.024665901676141,0.7550348857067513,0.9195247142448392,1.223932782588031,1.782314184701115,1.466451383611526,1.266176870733507,1.303240601036205,1.877963507306689,1.213255095558168,1.211288505267498,419.047619047619,807.0695970695971,796.1904761904763,771.2087912087912,700.6959706959707,-0.531982,0.117249,0.819214,2.325287,-1.757050,-0.897217,1,1,1,1,1,20.000000
2023-09-28 17:28:26.732,,,,,,,,,,,,,,,,,,,,,,,,,,,,,,,,,,,,,,/muse/elements/jaw_clench
2023-09-28 17:28:26.973,,,,,,,,,,,,,,,,,,,,,,,,,,,,,,,,,,,,,,/muse/elements/jaw_clench
2023-09-28 17:28:27.243,,,,,,,,,,,,,,,,,,,,,,,,,,,,,,,,,,,,,,/muse/elements/jaw_clench
2023-09-28 17:28:27.544,1.020970071963885,-0.1395250247812614,-0.2562006827271299,0.875488427226658,1.050600136883464,0.7244471800680291,0.2516246821440926,0.9641331324341417,0.9048748272005528,1.024665901676141,0.7550348857067513,0.8287250154635902,1.329216126110827,1.782314184701115,1.466451383611526,1.30308560571856,1.06049681095327,1.877963507306689,1.213255095558168,1.173562346762203,524.6153846153846,820.3663003663004,778.0586080586081,816.3369963369963,666.8498168498169,-0.534729,0.109741,0.827942,1.884155,-3.499146,0.239258,1,1,1,1,1,20.000000
2023-09-28 17:28:27.666,,,,,,,,,,,,,,,,,,,,,,,,,,,,,,,,,,,,,,/muse/elements/jaw_clench
2023-09-28 17:28:27.845,,,,,,,,,,,,,,,,,,,,,,,,,,,,,,,,,,,,,,/muse/elements/jaw_clench
2023-09-28 17:28:28.179,,,,,,,,,,,,,,,,,,,,,,,,,,,,,,,,,,,,,,/muse/elements/jaw_clench
2023-09-28 17:28:28.536,1.009675732189042,-0.1395250247812614,0.2971701132445317,0.7521081525016146,0.9117871002707612,0.7244471800680291,0.4048882966804458,0.9795386827962888,0.9019788069085711,1.024665901676141,0.7748114200438793,0.5947233940257253,1.362199071231273,1.782314184701115,1.605487174108542,1.345485122138273,1.201914819032986,1.877963507306689,1.178745820167277,1.178746416637,543.5531135531136,772.014652014652,819.1575091575091,788.1318681318681,683.7728937728938,-0.528992,0.111877,0.824524,1.981354,-4.732819,-1.577606,1,1,1,1,1,20.000000
2023-09-28 17:28:28.881,,,,,,,,,,,,,,,,,,,,,,,,,,,,,,,,,,,,,,/muse/elements/jaw_clench
2023-09-28 17:28:29.486,,,,,,,,,,,,,,,,,,,,,,,,,,,,,,,,,,,,,,/muse/elements/jaw_clench
2023-09-28 17:28:29.540,1.009675732189042,-0.1395250247812614,0.1088341089843287,0.536432241262095,0.9117871002707612,0.7244471800680291,0.4180728724101619,0.9655058643249056,0.9019788069085711,1.024665901676141,0.599128899723788,0.4682991502726796,1.362199071231273,1.782314184701115,1.598260977841133,1.296166838447937,1.201914819032986,1.877963507306689,1.21093861830675,1.235244439046126,403.3333333333334,813.5164835164835,773.6263736263736,800.6227106227107,551.2087912087912,-0.518127,0.078796,0.847229,1.443024,-4.613190,-1.368256,1,1,1,1,1,20.000000
2023-09-28 17:28:29.665,,,,,,,,,,,,,,,,,,,,,,,,,,,,,,,,,,,,,,/muse/elements/jaw_clench
2023-09-28 17:28:29.776,,,,,,,,,,,,,,,,,,,,,,,,,,,,,,,,,,,,,,/muse/elements/blink
2023-09-28 17:28:30.536,0.5612032805412849,-0.1395250247812614,0.04481961076393442,0.5119062679258523,0.4883291997964266,0.7244471800680291,0.3525386688941047,0.6018902544763901,1.033580481701899,1.024665901676141,0.5672879008666959,0.5921627948129763,1.310053589563016,1.782314184701115,1.616957794185353,1.508142325863342,1.418543760981076,1.877963507306689,1.29510610251305,1.211826710746707,376.7399267399268,819.1575091575091,807.0695970695971,792.5641025641025,582.2344322344322,-0.493103,0.083557,0.854919,1.943970,-3.312225,0.037384,1,1,1,1,1,20.000000
2023-09-28 17:28:30.985,,,,,,,,,,,,,,,,,,,,,,,,,,,,,,,,,,,,,,/muse/elements/jaw_clench
2023-09-28 17:28:31.536,0.4902146060863273,-0.1395250247812614,0.2338418882353338,0.5777020311317277,0.7787303433611552,0.7244471800680291,0.3434287353821014,0.8463932469354034,1.090425525364388,1.024665901676141,0.627386736538189,0.8024990171368565,1.365437717758381,1.782314184701115,1.501951787779164,1.503491599011856,1.38190737813831,1.877963507306689,1.425471175221738,1.186800670576418,381.5750915750916,803.8461538461539,848.1684981684982,755.8974358974359,597.1428571428571,-0.499084,0.075867,0.846008,2.205658,-2.953339,-1.600037,1,1,1,1,1,20.000000
2023-09-28 17:28:32.121,,,,,,,,,,,,,,,,,,,,,,,,,,,,,,,,,,,,,,/muse/elements/jaw_clench
2023-09-28 17:28:32.302,,,,,,,,,,,,,,,,,,,,,,,,,,,,,,,,,,,,,,/muse/elements/jaw_clench
2023-09-28 17:28:32.538,0.4587913019356191,-0.1395250247812614,0.1166146224453499,0.4120504763128746,0.8786115031057081,0.7244471800680291,0.1367273095063823,0.7234755094881883,1.07035243375288,1.024665901676141,0.4621252892394396,1.014951503275429,1.426677347371231,1.782314184701115,1.373899253655722,1.388059753789584,1.335927395086758,1.877963507306689,1.429158138556087,1.200511408284741,385.2014652014652,803.040293040293,807.4725274725275,756.3003663003664,605.6043956043957,-0.500793,0.082031,0.850098,2.586975,-4.336548,-0.560760,1,1,1,1,1,20.000000
2023-09-28 17:28:32.615,,,,,,,,,,,,,,,,,,,,,,,,,,,,,,,,,,,,,,/muse/elements/jaw_clench
2023-09-28 17:28:32.814,,,,,,,,,,,,,,,,,,,,,,,,,,,,,,,,,,,,,,/muse/elements/jaw_clench
2023-09-28 17:28:33.536,0.486987509800794,-0.1395250247812614,0.1166146224453499,0.2820933870618132,0.7850532110109179,0.7244471800680291,0.1367273095063823,0.5737451322799535,1.206176590038529,1.024665901676141,0.4621252892394396,0.9904789496234736,1.265462828513487,1.782314184701115,1.373899253655722,1.202904700930257,1.292142524931063,1.877963507306689,1.429158138556087,1.181789061380952,388.4249084249084,826.007326007326,777.2527472527473,743.8095238095239,539.5238095238095,-0.499390,0.067749,0.848999,2.018738,-3.573914,-0.643005,1,1,1,1,1,20.000000
2023-09-28 17:28:34.364,,,,,,,,,,,,,,,,,,,,,,,,,,,,,,,,,,,,,,/muse/elements/jaw_clench
2023-09-28 17:28:34.536,0.5782498351826081,-0.1395250247812614,0.1166146224453499,0.2934473657906518,0.7423964061258057,0.7244471800680291,0.1367273095063823,0.6588274785523256,1.213892708418422,1.024665901676141,0.4621252892394396,0.7042029159077818,1.117700527688803,1.782314184701115,1.373899253655722,1.111747844580703,1.246977760570029,1.877963507306689,1.429158138556087,1.141567111227542,353.7728937728938,796.996336996337,807.8754578754579,770.4029304029305,602.3809523809524,-0.498962,0.075378,0.848389,2.415009,-3.760834,-0.717773,1,1,1,1,1,20.000000
2023-09-28 17:28:34.744,,,,,,,,,,,,,,,,,,,,,,,,,,,,,,,,,,,,,,/muse/elements/blink
2023-09-28 17:28:34.744,,,,,,,,,,,,,,,,,,,,,,,,,,,,,,,,,,,,,,/muse/elements/jaw_clench
2023-09-28 17:28:35.535,0.1756663152537027,-0.1395250247812614,-0.199858036798616,0.1981140590067945,0.6249958943786412,0.7244471800680291,0.4128591200016792,0.5646220572072823,0.9330286364601832,1.024665901676141,0.6107925998797931,0.5452324783632652,1.240059497021168,1.782314184701115,1.501175509409783,1.135650963479287,1.127814956762434,1.877963507306689,0.8945542113366916,1.199030904125581,354.1758241758242,784.9084249084249,826.007326007326,782.4908424908425,565.7142857142858,-0.513916,0.077759,0.849426,2.340240,-2.325287,-0.044861,1,1,1,1,1,20.000000
2023-09-28 17:28:36.469,,,,,,,,,,,,,,,,,,,,,,,,,,,,,,,,,,,,,,/muse/elements/jaw_clench
2023-09-28 17:28:36.536,0.005931376968656068,-0.1395250247812614,-0.1368319466081842,-0.01197501987055842,0.632622277205912,0.7244471800680291,0.6476297366716766,0.7379676601415178,0.5574764641533447,1.024665901676141,0.5901484687601202,0.8317944887303645,0.9590822223380554,1.782314184701115,1.260968623527275,1.143635072419176,1.044070736884861,1.877963507306689,0.96166114146795,1.000853185449588,527.8388278388279,760.3296703296703,808.6813186813187,784.5054945054945,712.7838827838829,-0.509460,0.071594,0.842773,1.577606,-4.344025,-0.142059,1,1,1,1,1,20.000000
2023-09-28 17:28:37.543,0.176644406197194,-0.1395250247812614,-0.08257974011407049,0.2128001573254438,0.5623438319579356,0.7244471800680291,0.02912496646500824,0.5698704298984412,0.7411564486088513,1.024665901676141,0.6965176051615256,0.8334919452821157,0.9999291634132901,1.782314184701115,1.554490300640364,1.110950458392257,0.8959865175975594,1.877963507306689,1.296039433122635,1.002543616004926,472.2344322344322,796.996336996337,803.8461538461539,765.1648351648352,776.8498168498169,-0.519226,0.076782,0.841675,1.816864,-3.259888,-0.702820,1,1,1,1,1,20.000000
2023-09-28 17:28:38.536,0.4270656127567486,-0.1395250247812614,0.1978776988724683,0.7972950551617166,0.5053596825782716,0.7244471800680291,0.2621912811371798,0.6020790346021819,0.7236616813240871,1.024665901676141,0.6650831636908249,0.7949077181077892,1.104184178377551,1.782314184701115,1.388137949741738,1.093015564008634,0.7735033893094316,1.877963507306689,1.208692172850673,0.966571489074693,453.2967032967033,823.1868131868132,824.7985347985348,797.8021978021978,676.1172161172161,-0.513000,0.085815,0.844910,1.697235,-3.185120,-0.067291,1,1,1,1,1,20.000000
2023-09-28 17:28:38.737,,,,,,,,,,,,,,,,,,,,,,,,,,,,,,,,,,,,,,/muse/elements/jaw_clench
2023-09-28 17:28:39.158,,,,,,,,,,,,,,,,,,,,,,,,,,,,,,,,,,,,,,/muse/elements/jaw_clench
2023-09-28 17:28:39.336,,,,,,,,,,,,,,,,,,,,,,,,,,,,,,,,,,,,,,/muse/elements/jaw_clench
2023-09-28 17:28:39.548,0.3758666427712409,-0.1395250247812614,0.02715771134488211,0.8273059029433572,0.5106491717238827,0.7244471800680291,-0.186639265909946,0.4835537678899775,0.8754889011476445,1.024665901676141,0.2355050279544488,0.8736037821118864,1.086636116917508,1.782314184701115,1.275041999440066,1.09093431625059,1.3333769963205,1.877963507306689,1.17663678808421,1.038654278866923,950.9157509157509,749.4505494505495,784.9084249084249,780.0732600732601,826.007326007326,-0.513611,0.076355,0.840332,2.138367,-4.172058,-0.104675,1,1,1,1,1,20.000000
2023-09-28 17:28:39.958,,,,,,,,,,,,,,,,,,,,,,,,,,,,,,,,,,,,,,/muse/elements/blink
2023-09-28 17:28:39.958,,,,,,,,,,,,,,,,,,,,,,,,,,,,,,,,,,,,,,/muse/elements/jaw_clench
2023-09-28 17:28:40.116,,,,,,,,,,,,,,,,,,,,,,,,,,,,,,,,,,,,,,/muse/elements/jaw_clench
2023-09-28 17:28:40.449,,,,,,,,,,,,,,,,,,,,,,,,,,,,,,,,,,,,,,/muse/elements/jaw_clench
2023-09-28 17:28:40.539,0.4486355658754805,-0.1395250247812614,0.07154699299463461,0.7960821054876694,0.4494592506299315,0.7244471800680291,-0.1353311963325966,0.5569669267473611,0.9042805327742666,1.024665901676141,0.7133523148477582,0.8093519192090214,1.104504065551447,1.782314184701115,1.346873518023164,1.102681570161606,1.342099341198066,1.877963507306689,1.282467253844229,0.98328113618378,1220.476190476191,819.5604395604396,816.3369963369963,829.6336996336996,859.047619047619,-0.508179,0.077087,0.846863,2.130890,-3.110352,-1.450500,1,1,1,1,1,20.000000
2023-09-28 17:28:40.649,,,,,,,,,,,,,,,,,,,,,,,,,,,,,,,,,,,,,,/muse/elements/jaw_clench
2023-09-28 17:28:41.244,,,,,,,,,,,,,,,,,,,,,,,,,,,,,,,,,,,,,,/muse/elements/jaw_clench
2023-09-28 17:28:41.535,0.3227821116652971,-0.1395250247812614,0.07576395611434815,0.7960821054876694,1.081807442770852,0.7244471800680291,-0.08674239519936983,0.5569669267473611,1.303998481016983,1.024665901676141,0.7671773324247153,0.8093519192090214,1.403305950829167,1.782314184701115,1.469707585095364,1.102681570161606,1.165805025306604,1.877963507306689,1.422679995592668,0.98328113618378,885.6410256410256,757.9120879120879,782.4908424908425,833.6630036630037,723.6630036630037,-0.512695,0.071899,0.841736,2.078552,-4.553375,-0.650482,1,1,1,1,1,20.000000
2023-09-28 17:28:41.575,,,,,,,,,,,,,,,,,,,,,,,,,,,,,,,,,,,,,,/muse/elements/blink
2023-09-28 17:28:42.535,0.3227821116652971,-0.1395250247812614,0.008427835564247293,0.7960821054876694,1.081807442770852,0.7244471800680291,0.1923889473819626,0.5569669267473611,1.303998481016983,1.024665901676141,0.7088486964907672,0.8093519192090214,1.403305950829167,1.782314184701115,1.581042540196755,1.102681570161606,1.165805025306604,1.877963507306689,1.439874586710838,0.98328113618378,1210.805860805861,800.2197802197802,760.3296703296703,801.8315018315019,894.1025641025641,-0.511169,0.076904,0.843445,2.160797,-2.467346,-0.717773,1,1,1,1,1,20.000000
2023-09-28 17:28:43.268,,,,,,,,,,,,,,,,,,,,,,,,,,,,,,,,,,,,,,/muse/elements/jaw_clench
2023-09-28 17:28:43.535,0.8292247076374762,-0.1395250247812614,-0.09798890959617886,0.6946752059672213,0.7014980038257186,0.7244471800680291,0.1177329894236657,0.469156960464486,1.178409097479119,1.024665901676141,0.606975515960627,0.9196551534893944,1.099391491881986,1.782314184701115,1.651482395375807,1.263030888586292,1.298379648826281,1.877963507306689,1.303440229710982,1.097863627777828,1222.087912087912,798.2051282051282,801.4285714285714,816.3369963369963,1024.249084249084,-0.503296,0.073486,0.853577,1.570129,-4.164581,-0.306549,1,1,1,1,1,20.000000
2023-09-28 17:28:44.535,0.9311994684110967,-0.1395250247812614,0.1022062717943829,0.7462697627032812,0.7547568959005294,0.7244471800680291,0.03474394128327626,0.4160221040517348,1.178409097479119,1.024665901676141,0.5149254331285996,0.8998140395837069,1.168684487333632,1.782314184701115,1.651489208463645,1.174290327471362,1.325382407278419,1.877963507306689,1.054926380725802,1.150901523702305,1214.432234432235,771.2087912087912,783.2967032967033,836.8864468864469,973.8827838827839,-0.495911,0.076904,0.853149,1.689758,-3.633728,-1.884155,1,1,1,1,1,20.000000
2023-09-28 17:28:44.629,,,,,,,,,,,,,,,,,,,,,,,,,,,,,,,,,,,,,,/muse/elements/blink
2023-09-28 17:28:44.629,,,,,,,,,,,,,,,,,,,,,,,,,,,,,,,,,,,,,,/muse/elements/jaw_clench
2023-09-28 17:28:45.550,0.9311994684110967,-0.1395250247812614,0.1022062717943829,0.7435066502530012,0.7547568959005294,0.7244471800680291,0.03474394128327626,0.4200418239692961,1.178409097479119,1.024665901676141,0.5149254331285996,0.8422555162075693,1.168684487333632,1.782314184701115,1.651489208463645,1.19818868086047,1.325382407278419,1.877963507306689,1.054926380725802,1.106627097520533,1129.81684981685,722.0512820512821,786.1172161172161,814.3223443223443,883.2234432234433,-0.472839,0.062439,0.858398,2.100983,-4.201965,0.052338,1,1,1,1,1,20.000000
2023-09-28 17:28:46.043,,,,,,,,,,,,,,,,,,,,,,,,,,,,,,,,,,,,,,/muse/elements/jaw_clench
2023-09-28 17:28:46.535,0.1605694435286441,-0.1395250247812614,-0.4750550393557642,0.286190044508755,0.7215234058863982,0.7244471800680291,0.0007481048289853534,0.6124994641238615,0.7771277041792479,1.024665901676141,0.3063458226135529,0.9881879702749362,1.196733472129002,1.782314184701115,1.590886718718401,1.427864596749863,1.386900485266357,1.877963507306689,1.277429509193814,1.366411974412598,1146.739926739927,800.2197802197802,811.9047619047619,807.0695970695971,893.6996336996338,-0.484253,0.064880,0.861389,1.211243,-2.901001,-0.328979,1,1,1,1,1,20.000000
2023-09-28 17:28:46.931,,,,,,,,,,,,,,,,,,,,,,,,,,,,,,,,,,,,,,/muse/elements/jaw_clench
2023-09-28 17:28:47.242,,,,,,,,,,,,,,,,,,,,,,,,,,,,,,,,,,,,,,/muse/elements/jaw_clench
2023-09-28 17:28:47.530,,,,,,,,,,,,,,,,,,,,,,,,,,,,,,,,,,,,,,/muse/elements/jaw_clench
2023-09-28 17:28:47.539,0.7884875921133019,-0.1395250247812614,0.474770503478435,0.4116829971261593,0.7421196558315294,0.7244471800680291,0.4639488301919674,0.5942122320361807,1.13574880361406,1.024665901676141,0.8830770952888535,0.9335520291089616,1.262040716567502,1.782314184701115,1.571237649715306,1.549828615750483,1.341342472621081,1.877963507306689,1.205254926990412,1.368037359769122,653.956043956044,818.3516483516484,830.4395604395604,770.4029304029305,707.948717948718,-0.465637,0.048828,0.866028,2.773895,-3.252411,-3.917847,1,1,1,1,1,20.000000
2023-09-28 17:28:47.793,,,,,,,,,,,,,,,,,,,,,,,,,,,,,,,,,,,,,,/muse/elements/jaw_clench
2023-09-28 17:28:47.948,,,,,,,,,,,,,,,,,,,,,,,,,,,,,,,,,,,,,,/muse/elements/jaw_clench
2023-09-28 17:28:48.535,0.8790221108523528,-0.1395250247812614,0.8738789129720227,0.5255382168227439,0.8102606531889449,0.7244471800680291,0.83945148108658,0.5572421394522046,1.14699090767083,1.024665901676141,0.9643282721013883,0.6053152216998704,1.383168496275163,1.782314184701115,1.507262881666609,1.541511585913927,1.266460527337769,1.877963507306689,1.216695182171939,1.392455723427083,710.3663003663004,770.8058608058608,767.5824175824176,807.0695970695971,779.6703296703297,-0.448303,0.057068,0.879517,0.523376,-2.743988,1.876678,1,1,4,1,1,20.000000
2023-09-28 17:28:48.669,,,,,,,,,,,,,,,,,,,,,,,,,,,,,,,,,,,,,,/muse/elements/jaw_clench
2023-09-28 17:28:49.089,,,,,,,,,,,,,,,,,,,,,,,,,,,,,,,,,,,,,,/muse/elements/blink
2023-09-28 17:28:49.375,,,,,,,,,,,,,,,,,,,,,,,,,,,,,,,,,,,,,,/muse/elements/jaw_clench
2023-09-28 17:28:49.535,0.2788805291417361,-0.1395250247812614,0.8738789129720227,0.2625079251844014,0.6584010862722176,0.7244471800680291,0.83945148108658,0.6945835026070137,0.7921881545740518,1.024665901676141,0.9643282721013883,0.8134097816945792,1.407115850186583,1.782314184701115,1.507262881666609,1.244648924170132,1.221030304742858,1.877963507306689,1.216695182171939,1.210205576588647,691.8315018315019,823.5897435897436,824.3956043956044,770.8058608058608,693.8461538461538,-0.471863,0.068542,0.867310,2.160797,-4.538422,-0.179443,1,1,1,1,1,20.000000
2023-09-28 17:28:50.391,,,,,,,,,,,,,,,,,,,,,,,,,,,,,,,,,,,,,,/muse/elements/jaw_clench
2023-09-28 17:28:50.535,0.2788805291417361,-0.1395250247812614,0.08079284860618757,0.344583997931694,0.6584010862722176,0.7244471800680291,-0.05478230407063489,0.6776702292114718,0.7921881545740518,1.024665901676141,0.7319656827878549,0.812816188754992,1.407115850186583,1.782314184701115,1.497289938575764,1.225398800794882,1.221030304742858,1.877963507306689,1.389624372526569,1.193006828610437,741.7948717948718,775.6410256410256,811.9047619047619,790.1465201465202,669.6703296703297,-0.478699,0.063721,0.862244,1.674805,-2.863617,-0.433655,1,1,1,1,1,20.000000
2023-09-28 17:28:51.007,,,,,,,,,,,,,,,,,,,,,,,,,,,,,,,,,,,,,,/muse/elements/jaw_clench
