TimeStamp,Delta_TP9,Delta_AF7,Delta_AF8,Delta_TP10,Theta_TP9,Theta_AF7,Theta_AF8,Theta_TP10,Alpha_TP9,Alpha_AF7,Alpha_AF8,Alpha_TP10,Beta_TP9,Beta_AF7,Beta_AF8,Beta_TP10,Gamma_TP9,Gamma_AF7,Gamma_AF8,Gamma_TP10,RAW_TP9,RAW_AF7,RAW_AF8,RAW_TP10,AUX_RIGHT,Accelerometer_X,Accelerometer_Y,Accelerometer_Z,Gyro_X,Gyro_Y,Gyro_Z,HeadBandOn,HSI_TP9,HSI_AF7,HSI_AF8,HSI_TP10,Battery,Elements
2023-08-28 20:22:16.639,,,,,,,,,,,,,,,,,,,,,,,,,,,,,,,,,,,,,,/muse/event/connected Muse-D424
2023-08-28 20:22:16.692,,,,,,,,,,,,,,,,,,,,,,,,,,,,,,,,,,,,,,/muse/elements/blink
2023-08-28 20:22:16.698,,,,,,,,,,,,,,,,,,,,,,,,,,,,,,,,,,,,,,/muse/elements/blink
2023-08-28 20:22:16.701,,,,,,,,,,,,,,,,,,,,,,,,,,,,,,,,,,,,,,/muse/elements/blink
2023-08-28 20:22:16.704,,,,,,,,,,,,,,,,,,,,,,,,,,,,,,,,,,,,,,/muse/elements/blink
2023-08-28 20:22:16.710,,,,,,,,,,,,,,,,,,,,,,,,,,,,,,,,,,,,,,/muse/elements/blink
2023-08-28 20:22:17.640,0.7305453766355361,-0.003212370822874075,0.178128558020406,0.791704257373283,0.6670473001760601,0.1277948052399533,0.2489607318695597,0.3008221891695666,0.6138475460375246,0.5385143064273158,0.6113671924158156,0.7363410742599937,1.205725188251808,1.736225241414374,1.435578156499785,1.440720313965705,0.9611713983112227,1.384819564310978,1.277274728902756,0.9359727122286252,909.0109890109891,818.3516483516484,799.0109890109891,747.032967032967,927.948717948718,-0.732971,0.130737,0.640320,2.751465,-5.473022,-6.729126,1,4,1,1,2,45.000000
2023-08-28 20:22:17.708,,,,,,,,,,,,,,,,,,,,,,,,,,,,,,,,,,,,,,/muse/elements/blink
2023-08-28 20:22:17.891,,,,,,,,,,,,,,,,,,,,,,,,,,,,,,,,,,,,,,/muse/elements/blink
2023-08-28 20:22:18.320,,,,,,,,,,,,,,,,,,,,,,,,,,,,,,,,,,,,,,/muse/elements/blink
2023-08-28 20:22:18.432,,,,,,,,,,,,,,,,,,,,,,,,,,,,,,,,,,,,,,/muse/elements/jaw_clench
2023-08-28 20:22:18.505,,,,,,,,,,,,,,,,,,,,,,,,,,,,,,,,,,,,,,/muse/elements/blink
2023-08-28 20:22:18.649,0.7305453766355361,-0.003212370822874075,0.178128558020406,0.791704257373283,0.6670473001760601,0.1277948052399533,0.2489607318695597,0.3008221891695666,0.6138475460375246,0.5385143064273158,0.6113671924158156,0.7363410742599937,1.205725188251808,1.736225241414374,1.435578156499785,1.440720313965705,0.9611713983112227,1.384819564310978,1.277274728902756,0.9359727122286252,280.8424908424909,786.9230769230769,767.985347985348,629.7802197802198,773.6263736263736,-0.730286,0.141174,0.660583,1.988831,-4.089813,-0.216827,1,4,1,1,2,45.000000
2023-08-28 20:22:19.116,,,,,,,,,,,,,,,,,,,,,,,,,,,,,,,,,,,,,,/muse/elements/blink
2023-08-28 20:22:19.652,0.7305453766355361,-0.003212370822874075,0.178128558020406,0.791704257373283,0.6670473001760601,0.1277948052399533,0.2489607318695597,0.3008221891695666,0.6138475460375246,0.5385143064273158,0.6113671924158156,0.7363410742599937,1.205725188251808,1.736225241414374,1.435578156499785,1.440720313965705,0.9611713983112227,1.384819564310978,1.277274728902756,0.9359727122286252,1624.615384615385,800.2197802197802,785.7142857142858,712.7838827838829,627.3626373626374,-0.719177,0.140625,0.669678,1.914062,1.211243,-0.403748,1,4,1,1,2,45.000000
2023-08-28 20:22:19.741,,,,,,,,,,,,,,,,,,,,,,,,,,,,,,,,,,,,,,/muse/elements/blink
2023-08-28 20:22:19.921,,,,,,,,,,,,,,,,,,,,,,,,,,,,,,,,,,,,,,/muse/elements/jaw_clench
2023-08-28 20:22:20.132,,,,,,,,,,,,,,,,,,,,,,,,,,,,,,,,,,,,,,/muse/elements/blink
2023-08-28 20:22:20.132,,,,,,,,,,,,,,,,,,,,,,,,,,,,,,,,,,,,,,/muse/elements/jaw_clench
2023-08-28 20:22:20.335,,,,,,,,,,,,,,,,,,,,,,,,,,,,,,,,,,,,,,/muse/elements/blink
2023-08-28 20:22:20.639,0.7305453766355361,-0.003212370822874075,0.178128558020406,0.791704257373283,0.6670473001760601,0.1277948052399533,0.2489607318695597,0.3008221891695666,0.6138475460375246,0.5385143064273158,0.6113671924158156,0.7363410742599937,1.205725188251808,1.736225241414374,1.435578156499785,1.440720313965705,0.9611713983112227,1.384819564310978,1.277274728902756,0.9359727122286252,817.948717948718,807.0695970695971,766.3736263736264,707.1428571428571,709.5604395604396,-0.729919,0.149109,0.662720,2.429962,-0.986938,0.725250,1,4,1,1,2,45.000000
2023-08-28 20:22:21.135,,,,,,,,,,,,,,,,,,,,,,,,,,,,,,,,,,,,,,/muse/elements/blink
2023-08-28 20:22:21.649,0.7305453766355361,-0.003212370822874075,0.178128558020406,0.791704257373283,0.6670473001760601,0.1277948052399533,0.2489607318695597,0.3008221891695666,0.6138475460375246,0.5385143064273158,0.6113671924158156,0.7363410742599937,1.205725188251808,1.736225241414374,1.435578156499785,1.440720313965705,0.9611713983112227,1.384819564310978,1.277274728902756,0.9359727122286252,1624.615384615385,798.6080586080586,792.5641025641025,673.6996336996338,564.1025641025641,-0.696716,0.141724,0.694275,1.338348,-4.650574,-0.852356,1,2,1,1,2,45.000000
2023-08-28 20:22:22.646,0.7305453766355361,0.4689907384041967,0.178128558020406,0.791704257373283,0.6670473001760601,0.3374676412445242,0.2489607318695597,0.3008221891695666,0.6138475460375246,0.9113338645173942,0.6113671924158156,0.7363410742599937,1.205725188251808,0.8823105907804388,1.435578156499785,1.440720313965705,0.9611713983112227,1.040675249599592,1.277274728902756,0.9359727122286252,1307.509157509158,799.0109890109891,805.0549450549451,1006.117216117216,487.948717948718,-0.745544,0.103455,0.614502,3.895416,-2.676697,-8.344116,1,2,1,1,2,45.000000
2023-08-28 20:22:23.378,,,,,,,,,,,,,,,,,,,,,,,,,,,,,,,,,,,,,,/muse/elements/blink
2023-08-28 20:22:23.468,,,,,,,,,,,,,,,,,,,,,,,,,,,,,,,,,,,,,,/muse/elements/jaw_clench
2023-08-28 20:22:23.640,0.7305453766355361,0.3892774757659638,0.8628790313774471,0.791704257373283,0.6670473001760601,0.2597665254509766,0.7103708624497392,0.3008221891695666,0.6138475460375246,0.9157769935030042,0.6896336613372215,0.7363410742599937,1.205725188251808,0.5844676878257108,0.5234540140459544,1.440720313965705,0.9611713983112227,0.5778713484984899,0.4107241928462467,0.9359727122286252,1523.882783882784,811.0989010989011,803.4432234432235,597.5457875457876,558.0586080586081,-0.782288,0.103516,0.654358,4.590759,2.056122,-0.186920,1,2,1,1,4,45.000000
2023-08-28 20:22:24.650,0.7305453766355361,0.6832048751549444,1.08378664222686,0.791704257373283,0.6670473001760601,0.2208323789754945,0.7121335551329754,0.3008221891695666,0.6138475460375246,0.4662022330036589,0.631021080626846,0.7363410742599937,1.205725188251808,0.5868793832028214,0.4264434152529545,1.440720313965705,0.9611713983112227,0.4887080171352893,0.2416194052868724,0.9359727122286252,1110.476190476191,803.8461538461539,780.0732600732601,504.8717948717949,773.6263736263736,-0.655762,0.093445,0.724426,1.734619,-6.945953,2.489777,1,2,1,1,4,40.000000
2023-08-28 20:22:25.125,,,,,,,,,,,,,,,,,,,,,,,,,,,,,,,,,,,,,,/muse/elements/jaw_clench
2023-08-28 20:22:25.218,,,,,,,,,,,,,,,,,,,,,,,,,,,,,,,,,,,,,,/muse/elements/blink
2023-08-28 20:22:25.650,0.7305453766355361,0.6243145458412808,1.209162788984305,0.791704257373283,0.6670473001760601,0.2232327474398929,0.6967851176672444,0.3008221891695666,0.6138475460375246,0.8486768099638308,0.5169638169933995,0.7363410742599937,1.205725188251808,0.9891702962628752,0.4327524616121391,1.440720313965705,0.9611713983112227,0.7757686234818053,0.2874647586786003,0.9359727122286252,0,810.6959706959707,835.6776556776557,797.3992673992674,662.014652014652,-0.723328,0.137329,0.662598,1.973877,-3.072968,0.807495,1,2,1,1,2,40.000000
2023-08-28 20:22:25.997,,,,,,,,,,,,,,,,,,,,,,,,,,,,,,,,,,,,,,/muse/elements/blink
2023-08-28 20:22:26.238,,,,,,,,,,,,,,,,,,,,,,,,,,,,,,,,,,,,,,/muse/elements/jaw_clench
2023-08-28 20:22:26.640,0.7305453766355361,0.5452593847007543,1.209162788984305,0.791704257373283,0.6670473001760601,0.4991989870601112,0.6967851176672444,0.3008221891695666,0.6138475460375246,0.8486768099638308,0.5169638169933995,0.7363410742599937,1.205725188251808,1.36620868841549,0.4327524616121391,1.440720313965705,0.9611713983112227,1.173158912762132,0.2874647586786003,0.9359727122286252,1624.615384615385,796.1904761904763,832.4542124542124,678.1318681318681,599.9633699633699,-0.709595,0.140991,0.684814,1.450500,-4.201965,-0.321503,1,4,1,1,2,40.000000
2023-08-28 20:22:26.707,,,,,,,,,,,,,,,,,,,,,,,,,,,,,,,,,,,,,,/muse/elements/jaw_clench
2023-08-28 20:22:27.310,,,,,,,,,,,,,,,,,,,,,,,,,,,,,,,,,,,,,,/muse/elements/blink
2023-08-28 20:22:27.552,,,,,,,,,,,,,,,,,,,,,,,,,,,,,,,,,,,,,,/muse/elements/jaw_clench
2023-08-28 20:22:27.643,0.7305453766355361,0.5452593847007543,1.209162788984305,0.791704257373283,0.6670473001760601,0.4991989870601112,0.6967851176672444,0.3008221891695666,0.6138475460375246,0.8486768099638308,0.5169638169933995,0.7363410742599937,1.205725188251808,1.36620868841549,0.4327524616121391,1.440720313965705,0.9611713983112227,1.173158912762132,0.2874647586786003,0.9359727122286252,0,791.3553113553114,793.7728937728938,787.7289377289378,981.5384615384615,-0.718018,0.151489,0.677002,5.173950,4.740295,-0.448608,1,4,1,1,2,40.000000
2023-08-28 20:22:27.752,,,,,,,,,,,,,,,,,,,,,,,,,,,,,,,,,,,,,,/muse/elements/jaw_clench
2023-08-28 20:22:28.065,,,,,,,,,,,,,,,,,,,,,,,,,,,,,,,,,,,,,,/muse/elements/blink
2023-08-28 20:22:28.532,,,,,,,,,,,,,,,,,,,,,,,,,,,,,,,,,,,,,,/muse/elements/blink
2023-08-28 20:22:28.532,,,,,,,,,,,,,,,,,,,,,,,,,,,,,,,,,,,,,,/muse/elements/jaw_clench
2023-08-28 20:22:28.640,0.7305453766355361,0.5452593847007543,1.209162788984305,0.791704257373283,0.6670473001760601,0.4991989870601112,0.6967851176672444,0.3008221891695666,0.6138475460375246,0.8486768099638308,0.5169638169933995,0.7363410742599937,1.205725188251808,1.36620868841549,0.4327524616121391,1.440720313965705,0.9611713983112227,1.173158912762132,0.2874647586786003,0.9359727122286252,1564.578754578755,774.0293040293041,801.8315018315019,773.2234432234433,869.5238095238095,-0.708679,0.153076,0.684143,1.973877,-4.568329,-0.456085,1,4,1,1,2,40.000000
2023-08-28 20:22:28.754,,,,,,,,,,,,,,,,,,,,,,,,,,,,,,,,,,,,,,/muse/elements/blink
2023-08-28 20:22:29.132,,,,,,,,,,,,,,,,,,,,,,,,,,,,,,,,,,,,,,/muse/elements/blink
2023-08-28 20:22:29.132,,,,,,,,,,,,,,,,,,,,,,,,,,,,,,,,,,,,,,/muse/elements/jaw_clench
2023-08-28 20:22:29.461,,,,,,,,,,,,,,,,,,,,,,,,,,,,,,,,,,,,,,/muse/elements/blink
2023-08-28 20:22:29.648,0.7305453766355361,-0.016132552896333,1.209162788984305,0.791704257373283,0.6670473001760601,0.4609034515276097,0.6967851176672444,0.3008221891695666,0.6138475460375246,0.9740154917666276,0.5169638169933995,0.7363410742599937,1.205725188251808,1.685443145506798,0.4327524616121391,1.440720313965705,0.9611713983112227,1.302266844331478,0.2874647586786003,0.9359727122286252,787.3260073260074,798.2051282051282,754.2857142857143,930.3663003663004,927.948717948718,-0.699768,0.145630,0.690369,2.265472,-4.044952,-0.695343,1,4,1,1,2,40.000000
2023-08-28 20:22:29.660,,,,,,,,,,,,,,,,,,,,,,,,,,,,,,,,,,,,,,/muse/elements/blink
2023-08-28 20:22:30.640,0.7305453766355361,0.03110002826964346,1.209162788984305,0.791704257373283,0.6670473001760601,0.4412001602776894,0.6967851176672444,0.3008221891695666,0.6138475460375246,0.8899000389623717,0.5169638169933995,0.7363410742599937,1.205725188251808,1.718666026020079,0.4327524616121391,1.440720313965705,0.9611713983112227,1.340084966335569,0.2874647586786003,0.9359727122286252,1624.212454212454,767.985347985348,746.6300366300367,748.2417582417582,839.7069597069598,-0.687561,0.146179,0.695312,1.958923,-4.493561,-1.233673,1,4,1,1,2,40.000000
2023-08-28 20:22:31.114,,,,,,,,,,,,,,,,,,,,,,,,,,,,,,,,,,,,,,/muse/elements/blink
2023-08-28 20:22:31.384,,,,,,,,,,,,,,,,,,,,,,,,,,,,,,,,,,,,,,/muse/elements/blink
2023-08-28 20:22:31.640,0.7305453766355361,0.03110002826964346,1.209162788984305,0.791704257373283,0.6670473001760601,0.4412001602776894,0.6967851176672444,0.3008221891695666,0.6138475460375246,0.8899000389623717,0.5169638169933995,0.7363410742599937,1.205725188251808,1.718666026020079,0.4327524616121391,1.440720313965705,0.9611713983112227,1.340084966335569,0.2874647586786003,0.9359727122286252,1629.047619047619,786.9230769230769,786.9230769230769,830.8424908424909,973.4798534798535,-0.675659,0.140625,0.713684,1.450500,-4.598236,-0.949554,1,4,1,1,2,40.000000
2023-08-28 20:22:32.646,0.7305453766355361,0.1232286382485024,0.3901097287502506,0.791704257373283,0.6670473001760601,0.3742385507001445,0.2912658500161051,0.3008221891695666,0.6138475460375246,0.9603625289485036,0.2849053350743532,0.7363410742599937,1.205725188251808,1.486110880149758,1.19586689091312,1.440720313965705,0.9611713983112227,1.269675298416086,1.007029350880404,0.9359727122286252,1284.139194139194,790.952380952381,797.8021978021978,761.941391941392,945.6776556776557,-0.664185,0.137390,0.726990,1.869202,-4.538422,-1.091614,1,4,1,1,2,40.000000
2023-08-28 20:22:33.059,,,,,,,,,,,,,,,,,,,,,,,,,,,,,,,,,,,,,,/muse/elements/blink
2023-08-28 20:22:33.644,0.7305453766355361,0.09366162630270733,0.5246695045926391,0.791704257373283,0.6670473001760601,0.0730227193367893,0.1899988925990994,0.3008221891695666,0.6138475460375246,0.86745728027297,0.4209250098207353,0.7363410742599937,1.205725188251808,1.437992956064542,1.129234897831341,1.440720313965705,0.9611713983112227,1.367499364134526,0.8976789450219075,0.9359727122286252,1371.172161172161,791.7582417582418,791.3553113553114,754.6886446886447,614.4688644688645,-0.655884,0.133240,0.737732,1.420593,-3.319702,-1.001892,1,2,1,1,2,40.000000
2023-08-28 20:22:34.341,,,,,,,,,,,,,,,,,,,,,,,,,,,,,,,,,,,,,,/muse/elements/blink
2023-08-28 20:22:34.640,0.7305453766355361,-0.005702940750237469,0.4736170873178056,0.791704257373283,0.6670473001760601,-0.1183355391359706,0.164480279242048,0.3008221891695666,0.6138475460375246,0.774416194938168,0.7237383528555991,0.7363410742599937,1.205725188251808,1.42437541822435,1.005483387183555,1.440720313965705,0.9611713983112227,1.339526746067725,0.9847182067170048,0.9359727122286252,1624.615384615385,769.5970695970697,809.4871794871796,833.2600732600733,765.5677655677656,-0.643982,0.127930,0.735718,1.929016,-3.790741,-1.084137,1,4,1,1,2,40.000000
2023-08-28 20:22:35.647,0.7305453766355361,-0.1939445864767349,0.4918601174363476,0.791704257373283,0.6670473001760601,-0.1573460397616263,0.3295330380490114,0.3008221891695666,0.6138475460375246,0.7821714819628344,0.8467412983032929,0.7363410742599937,1.205725188251808,1.363138455503473,1.251291573212576,1.440720313965705,0.9611713983112227,1.18252916699878,0.9037004800536862,0.9359727122286252,0,761.1355311355312,792.967032967033,985.9706959706961,614.4688644688645,-0.645935,0.136047,0.715820,4.403839,34.617615,-3.917847,1,2,1,1,2,45.000000
2023-08-28 20:22:35.747,,,,,,,,,,,,,,,,,,,,,,,,,,,,,,,,,,,,,,/muse/elements/blink
2023-08-28 20:22:35.836,,,,,,,,,,,,,,,,,,,,,,,,,,,,,,,,,,,,,,/muse/elements/jaw_clench
2023-08-28 20:22:36.187,,,,,,,,,,,,,,,,,,,,,,,,,,,,,,,,,,,,,,/muse/elements/blink
2023-08-28 20:22:36.640,0.7305453766355361,-0.1956824290199732,0.5108274586036453,0.791704257373283,0.6670473001760601,0.1873004798390517,0.4343761888774346,0.3008221891695666,0.6138475460375246,0.7254692308545468,0.8288683477883407,0.7363410742599937,1.205725188251808,1.349692025496983,1.31274580742619,1.440720313965705,0.9611713983112227,1.197884382198069,0.9105294035476617,0.9359727122286252,1585.934065934066,805.8608058608058,792.967032967033,727.2893772893773,499.2307692307692,-0.775879,0.107971,0.606995,3.805695,-10.160980,-2.183228,1,4,1,1,2,45.000000
2023-08-28 20:22:37.640,0.7305453766355361,-0.2089784499778462,0.546650722970777,0.791704257373283,0.6670473001760601,0.4063036587385621,0.4486455555680574,0.3008221891695666,0.6138475460375246,0.6297320236610676,0.7005354426229086,0.7363410742599937,1.205725188251808,1.329720987906016,1.261970834781038,1.440720313965705,0.9611713983112227,1.212233739886364,0.9284961723041775,0.9359727122286252,1100.40293040293,788.5347985347986,770.4029304029305,799.4139194139194,606.007326007326,-0.709839,0.113953,0.690735,6.377716,-6.422577,-5.091705,1,2,1,1,2,45.000000
2023-08-28 20:22:38.085,,,,,,,,,,,,,,,,,,,,,,,,,,,,,,,,,,,,,,/muse/elements/blink
2023-08-28 20:22:38.650,0.7305453766355361,-0.2089784499778462,0.546650722970777,0.791704257373283,0.6670473001760601,0.4063036587385621,0.4486455555680574,0.3008221891695666,0.6138475460375246,0.6297320236610676,0.7005354426229086,0.7363410742599937,1.205725188251808,1.329720987906016,1.261970834781038,1.440720313965705,0.9611713983112227,1.212233739886364,0.9284961723041775,0.9359727122286252,1068.571428571429,745.4212454212454,793.3699633699634,772.4175824175825,1065.750915750916,-0.693909,0.115051,0.694214,2.250519,-6.646881,-1.734619,1,2,1,1,2,45.000000
2023-08-28 20:22:39.640,0.7305453766355361,-0.2089784499778462,0.546650722970777,0.791704257373283,0.6670473001760601,0.4063036587385621,0.4486455555680574,0.3008221891695666,0.6138475460375246,0.6297320236610676,0.7005354426229086,0.7363410742599937,1.205725188251808,1.329720987906016,1.261970834781038,1.440720313965705,0.9611713983112227,1.212233739886364,0.9284961723041775,0.9359727122286252,951.3186813186813,829.6336996336996,775.6410256410256,622.9304029304029,601.5750915750916,-0.658691,0.123535,0.726013,-3.177643,-3.648682,5.502930,1,2,1,1,2,45.000000
2023-08-28 20:22:40.445,,,,,,,,,,,,,,,,,,,,,,,,,,,,,,,,,,,,,,/muse/elements/blink
2023-08-28 20:22:40.640,0.7305453766355361,-0.2089784499778462,0.546650722970777,0.791704257373283,0.6670473001760601,0.4063036587385621,0.4486455555680574,0.3008221891695666,0.6138475460375246,0.6297320236610676,0.7005354426229086,0.7363410742599937,1.205725188251808,1.329720987906016,1.261970834781038,1.440720313965705,0.9611713983112227,1.212233739886364,0.9284961723041775,0.9359727122286252,1015.787545787546,803.8461538461539,802.6373626373627,776.0439560439561,888.4615384615385,-0.657715,0.131958,0.732422,1.540222,-4.919739,-0.201874,1,2,1,1,2,45.000000
2023-08-28 20:22:41.644,0.7305453766355361,-0.2089784499778462,0.546650722970777,0.791704257373283,0.6670473001760601,0.4063036587385621,0.4486455555680574,0.3008221891695666,0.6138475460375246,0.6297320236610676,0.7005354426229086,0.7363410742599937,1.205725188251808,1.329720987906016,1.261970834781038,1.440720313965705,0.9611713983112227,1.212233739886364,0.9284961723041775,0.9359727122286252,979.1208791208792,816.3369963369963,784.9084249084249,809.4871794871796,995.6410256410256,-0.633362,0.130920,0.747620,2.474823,-4.329071,-0.493469,1,2,1,1,2,45.000000
2023-08-28 20:22:42.644,0.5375046845233056,0.07689998787867433,0.546650722970777,0.791704257373283,0.1940499287116861,0.07573109184660337,0.4486455555680574,0.3008221891695666,0.8157572551231517,0.6433310961644164,0.7005354426229086,0.7363410742599937,1.288825342446532,1.529396967618405,1.261970834781038,1.440720313965705,0.979148134538161,1.350363326902163,0.9284961723041775,0.9359727122286252,977.1062271062272,803.8461538461539,814.7252747252747,648.3150183150183,764.3589743589744,-0.639160,0.133118,0.747925,1.943970,-3.416901,-0.336456,1,1,1,1,1,45.000000
2023-08-28 20:22:43.307,,,,,,,,,,,,,,,,,,,,,,,,,,,,,,,,,,,,,,/muse/elements/blink
2023-08-28 20:22:43.640,0.5516085502570051,0.07689998787867433,0.546650722970777,0.791704257373283,0.2794796475162482,0.07573109184660337,0.4486455555680574,0.3008221891695666,0.4436160175193146,0.6433310961644164,0.7005354426229086,0.7363410742599937,1.305547482910807,1.529396967618405,1.261970834781038,1.440720313965705,1.162930384137852,1.350363326902163,0.9284961723041775,0.9359727122286252,926.7399267399268,829.6336996336996,819.5604395604396,861.4652014652015,900.5494505494506,-0.647278,0.127991,0.741333,2.856140,-3.514099,-2.871094,1,1,1,1,1,45.000000
2023-08-28 20:22:44.640,0.647066113583498,0.07689998787867433,0.408439028244982,0.791704257373283,0.4198322576916032,0.07573109184660337,0.5074319164974662,0.3008221891695666,0.2314580838240065,0.6433310961644164,0.8986981600237949,0.7363410742599937,1.293032331132081,1.529396967618405,1.312799510611872,1.440720313965705,1.211901608428907,1.350363326902163,1.051797072000494,0.9359727122286252,1415.897435897436,818.7545787545788,807.4725274725275,768.3882783882784,786.1172161172161,-0.650757,0.133850,0.733459,3.117828,-3.715973,-2.998199,1,1,1,1,1,45.000000
2023-08-28 20:22:45.128,,,,,,,,,,,,,,,,,,,,,,,,,,,,,,,,,,,,,,/muse/elements/jaw_clench
2023-08-28 20:22:45.644,0.647066113583498,0.07689998787867433,0.6592295282597028,0.791704257373283,0.4198322576916032,0.07573109184660337,0.6202525032506266,0.3008221891695666,0.2314580838240065,0.6433310961644164,0.9211981371562018,0.7363410742599937,1.293032331132081,1.529396967618405,1.409305232211876,1.440720313965705,1.211901608428907,1.350363326902163,0.9327631799796078,0.9359727122286252,1624.615384615385,774.4322344322345,769.1941391941392,795.3846153846154,751.4652014652015,-0.662354,0.111511,0.728394,5.973969,-5.742188,-6.602020,1,4,1,1,2,40.000000
2023-08-28 20:22:45.745,,,,,,,,,,,,,,,,,,,,,,,,,,,,,,,,,,,,,,/muse/elements/jaw_clench
2023-08-28 20:22:46.124,,,,,,,,,,,,,,,,,,,,,,,,,,,,,,,,,,,,,,/muse/elements/blink
2023-08-28 20:22:46.437,,,,,,,,,,,,,,,,,,,,,,,,,,,,,,,,,,,,,,/muse/elements/jaw_clench
2023-08-28 20:22:46.638,,,,,,,,,,,,,,,,,,,,,,,,,,,,,,,,,,,,,,/muse/elements/jaw_clench
2023-08-28 20:22:46.652,0.647066113583498,0.07689998787867433,0.8032576931268851,0.791704257373283,0.4198322576916032,0.07573109184660337,0.7046303173520899,0.3008221891695666,0.2314580838240065,0.6433310961644164,0.9170697926498734,0.7363410742599937,1.293032331132081,1.529396967618405,1.403121335333672,1.440720313965705,1.211901608428907,1.350363326902163,1.010847351536156,0.9359727122286252,650.7326007326008,811.9047619047619,782.4908424908425,755.0915750915751,598.3516483516484,-0.672546,0.110229,0.722595,-0.104675,-3.992615,2.407532,1,4,1,1,2,40.000000
2023-08-28 20:22:47.639,0.647066113583498,0.07689998787867433,0.8032576931268851,0.791704257373283,0.4198322576916032,0.07573109184660337,0.7046303173520899,0.3008221891695666,0.2314580838240065,0.6433310961644164,0.9170697926498734,0.7363410742599937,1.293032331132081,1.529396967618405,1.403121335333672,1.440720313965705,1.211901608428907,1.350363326902163,1.010847351536156,0.9359727122286252,1158.424908424908,834.0659340659341,796.5934065934066,763.5531135531136,533.8827838827839,-0.650269,0.115784,0.736755,1.921539,-4.344025,-0.485992,1,2,1,1,2,40.000000
2023-08-28 20:22:48.646,0.647066113583498,0.07689998787867433,0.1812416595775376,0.791704257373283,0.4198322576916032,0.07573109184660337,0.3234377605725012,0.3008221891695666,0.2314580838240065,0.6433310961644164,0.5509738388253175,0.7363410742599937,1.293032331132081,1.529396967618405,1.188831102736698,1.440720313965705,1.211901608428907,1.350363326902163,0.9912543833690405,0.9359727122286252,1005.714285714286,799.8168498168499,791.7582417582418,730.5128205128206,550.8058608058608,-0.646423,0.107910,0.742493,2.003784,-3.790741,-0.530853,1,2,1,1,2,40.000000
2023-08-28 20:22:49.639,0.647066113583498,0.07689998787867433,0.4527205247076332,0.8588379456185183,0.4198322576916032,0.07573109184660337,0.648332932465174,0.6826939372180165,0.2314580838240065,0.6433310961644164,0.5931729060813202,0.9583252104345994,1.293032331132081,1.529396967618405,1.256496153642767,1.112544547873409,1.211901608428907,1.350363326902163,1.113611520570195,1.209613673384038,956.5567765567766,802.2344322344322,798.2051282051282,754.6886446886447,664.4322344322344,-0.644287,0.113953,0.749695,1.996307,-3.940277,-1.069183,1,1,1,1,1,40.000000
2023-08-28 20:22:50.181,,,,,,,,,,,,,,,,,,,,,,,,,,,,,,,,,,,,,,/muse/elements/blink
2023-08-28 20:22:50.639,0.8569557831316622,0.07689998787867433,0.5397329165705961,0.8588379456185183,0.1083540688010499,0.07573109184660337,0.6459799611538023,0.6826939372180165,0.7011409932512489,0.6433310961644164,0.5866083289221984,0.9583252104345994,1.321857375029301,1.529396967618405,1.173400819171427,1.112544547873409,1.181382902833367,1.350363326902163,1.03869707790064,1.209613673384038,954.5421245421246,781.6849816849817,783.2967032967033,749.4505494505495,678.1318681318681,-0.637512,0.113464,0.748108,0.710297,-3.162689,0.485992,1,1,1,1,1,40.000000
2023-08-28 20:22:51.643,0.8569557831316622,0.07689998787867433,0.5177963670555933,0.7284728585348678,0.1083540688010499,0.07573109184660337,0.05728459123834017,0.4668458074226753,0.7011409932512489,0.6433310961644164,0.3079144811102194,0.8405340162490473,1.321857375029301,1.529396967618405,1.010149657448042,1.227933427918516,1.181382902833367,1.350363326902163,1.155164580371769,0.8233757654862284,898.9377289377289,827.6190476190476,759.92673992674,758.3150183150184,651.5384615384615,-0.630127,0.114746,0.753357,1.592560,-4.687958,-0.246735,1,1,1,1,1,40.000000
2023-08-28 20:22:52.309,,,,,,,,,,,,,,,,,,,,,,,,,,,,,,,,,,,,,,/muse/elements/jaw_clench
2023-08-28 20:22:52.536,,,,,,,,,,,,,,,,,,,,,,,,,,,,,,,,,,,,,,/muse/elements/blink
2023-08-28 20:22:52.639,0.4664492497136424,0.07689998787867433,0.5177963670555933,0.7138753800017145,0.3686368047204626,0.07573109184660337,0.05728459123834017,0.4253033256048056,0.7212763075671114,0.6433310961644164,0.3079144811102194,0.8548401919645133,1.202507562316258,1.529396967618405,1.010149657448042,1.239323681650257,1.283889272485975,1.350363326902163,1.155164580371769,0.8059790468914578,0,774.0293040293041,819.96336996337,784.9084249084249,913.8461538461539,-0.635315,0.147583,0.745972,-0.216827,-2.370148,6.579590,1,1,1,1,1,40.000000
2023-08-28 20:22:52.809,,,,,,,,,,,,,,,,,,,,,,,,,,,,,,,,,,,,,,/muse/elements/jaw_clench
2023-08-28 20:22:53.056,,,,,,,,,,,,,,,,,,,,,,,,,,,,,,,,,,,,,,/muse/elements/jaw_clench
2023-08-28 20:22:53.639,0.2925687355791683,0.07689998787867433,0.5177963670555933,0.7453565987671635,0.1500938838306857,0.07573109184660337,0.05728459123834017,0.08913568468483848,0.570411138283196,0.6433310961644164,0.3079144811102194,0.7351810240196457,1.093851288421718,1.529396967618405,1.010149657448042,1.272731659745914,1.298908288060737,1.350363326902163,1.155164580371769,0.7657861286587409,21.35531135531136,756.3003663003664,788.1318681318681,786.1172161172161,1166.886446886447,-0.646790,0.163757,0.732849,1.734619,-6.026306,-2.347717,1,4,1,1,1,40.000000
2023-08-28 20:22:54.649,0.2925687355791683,0.07689998787867433,0.5177963670555933,0.7453565987671635,0.1500938838306857,0.07573109184660337,0.05728459123834017,0.08913568468483848,0.570411138283196,0.6433310961644164,0.3079144811102194,0.7351810240196457,1.093851288421718,1.529396967618405,1.010149657448042,1.272731659745914,1.298908288060737,1.350363326902163,1.155164580371769,0.7657861286587409,1624.615384615385,753.4798534798535,765.5677655677656,807.4725274725275,831.2454212454213,-0.632202,0.149475,0.747314,1.308441,-4.157104,-1.555176,1,4,1,1,2,40.000000
2023-08-28 20:22:55.646,0.2925687355791683,0.07689998787867433,0.480078767853016,0.6851885190261469,0.1500938838306857,0.07573109184660337,-0.06511445603339927,0.6391434337739711,0.570411138283196,0.6433310961644164,0.282759008205513,1.038705636792596,1.093851288421718,1.529396967618405,1.338570542926808,1.290891875196319,1.298908288060737,1.350363326902163,0.9752826979473903,1.183546067809202,0,807.4725274725275,771.6117216117216,811.5018315018315,771.6117216117216,-0.619385,0.148438,0.755737,3.499146,-4.403839,-2.729034,1,4,1,1,1,40.000000
2023-08-28 20:22:56.644,0.2925687355791683,0.07689998787867433,0.4820401279452166,0.6749058223092071,0.1500938838306857,0.07573109184660337,-0.1192865650943964,0.7621904182666818,0.570411138283196,0.6433310961644164,0.3660091370398416,0.9365546919346557,1.093851288421718,1.529396967618405,0.8914511374662861,1.347705077371023,1.298908288060737,1.350363326902163,0.8054541130094491,1.088548342990385,0,780.0732600732601,805.0549450549451,803.4432234432235,917.0695970695971,-0.635986,0.146057,0.747681,3.469238,-3.895416,-2.930908,1,4,1,1,1,40.000000
2023-08-28 20:22:56.703,,,,,,,,,,,,,,,,,,,,,,,,,,,,,,,,,,,,,,/muse/elements/blink
2023-08-28 20:22:56.792,,,,,,,,,,,,,,,,,,,,,,,,,,,,,,,,,,,,,,/muse/elements/jaw_clench
2023-08-28 20:22:57.647,0.2925687355791683,0.07689998787867433,0.6466305056848258,0.7828483125900942,0.1500938838306857,0.07573109184660337,-0.1288295951271691,0.8474581656729572,0.570411138283196,0.6433310961644164,0.2478822709961155,0.8921845033654512,1.093851288421718,1.529396967618405,0.9247100300525271,1.353507736701504,1.298908288060737,1.350363326902163,0.7595961734822584,0.9496404684962595,137.8021978021978,779.2673992673992,773.2234432234433,772.4175824175825,512.1245421245421,-0.634277,0.135498,0.748413,0.545807,-3.529053,-0.022430,1,4,1,1,1,40.000000
2023-08-28 20:22:58.642,0.2925687355791683,-0.1368358481268295,0.5225149683028054,0.7054488449415174,0.1500938838306857,0.0834726115755256,-0.001283107658111977,0.6173266722898878,0.570411138283196,0.8736902995405456,0.7449509515081155,0.628952416112522,1.093851288421718,1.65169205541928,0.9469018831017501,1.110457672727408,1.298908288060737,1.290131911063401,0.8686905387480899,0.9864137270258672,1624.615384615385,762.3443223443223,790.5494505494506,746.6300366300367,429.9267399267399,-0.626770,0.136353,0.748230,1.749573,-3.304749,-0.859833,1,4,1,1,1,40.000000
2023-08-28 20:22:59.640,0.2925687355791683,-0.0695358883422004,0.6319902146014558,0.7301768359208479,0.1500938838306857,0.06783579224024466,0.4073531063151839,0.6630448634382088,0.570411138283196,0.8272033229546105,0.7766756446983151,0.6250221708955248,1.093851288421718,1.629669146524845,1.125476990780902,1.133397700106206,1.298908288060737,1.268200558738593,0.9851296342478149,0.9420068513639001,1246.666666666667,744.2124542124542,769.1941391941392,745.8241758241759,449.6703296703297,-0.624695,0.137024,0.756775,1.809387,-3.843079,-0.942078,1,4,1,1,1,40.000000
2023-08-28 20:23:00.640,0.2925687355791683,-0.05372494816506448,0.5173468250739057,0.9071851713685843,0.1500938838306857,-0.02490332348269425,0.3929760819073275,0.5892370628748795,0.570411138283196,0.6438910337682968,0.7194518042923866,0.8772529271472567,1.093851288421718,1.60610398236921,1.147869915717478,0.9906925191232943,1.298908288060737,1.226981262920112,1.033521761694657,0.9033524849211316,1132.637362637363,811.5018315018315,790.952380952381,720.0366300366301,437.985347985348,-0.625427,0.138489,0.753296,1.457977,-3.693542,-0.418701,1,1,1,1,1,40.000000
2023-08-28 20:23:01.640,0.2925687355791683,-0.05372494816506448,0.3034758915130013,0.8279700630733979,0.1500938838306857,-0.02490332348269425,0.7046518977531155,0.8049214835634861,0.570411138283196,0.6438910337682968,0.7095867915270935,1.046905707383255,1.093851288421718,1.60610398236921,1.290409998132728,1.099225075630027,1.298908288060737,1.226981262920112,1.020299278345479,0.9347267210651143,985.5677655677656,801.025641025641,792.967032967033,735.7509157509157,491.1721611721612,-0.620728,0.140930,0.759583,1.757050,-3.110352,-1.046753,1,1,1,1,1,40.000000
2023-08-28 20:23:02.648,0.2925687355791683,0.3876725614878597,0.368405430157515,0.6335859373379232,0.1500938838306857,1.007695046618855,0.8200446535622964,0.6867113959058312,0.570411138283196,1.102941942051969,0.6310576871146725,0.9753681012573387,1.093851288421718,1.311368584453648,1.358349135903463,1.118131002149145,1.298908288060737,1.255372057255368,0.9096490327300533,0.8064687051125815,1012.967032967033,741.3919413919414,779.6703296703297,791.3553113553114,796.1904761904763,-0.614075,0.132629,0.764709,1.906586,-3.102875,-0.934601,1,1,1,1,1,40.000000
2023-08-28 20:23:03.643,0.2925687355791683,0.6875474369197419,0.368405430157515,0.6335859373379232,0.1500938838306857,0.9578434696497002,0.8200446535622964,0.6867113959058312,0.570411138283196,1.314042400480095,0.6310576871146725,0.9753681012573387,1.093851288421718,1.286858314836584,1.358349135903463,1.118131002149145,1.298908288060737,1.22542021556582,0.9096490327300533,0.8064687051125815,1010.549450549451,782.4908424908425,781.2820512820513,806.2637362637363,940.8424908424909,-0.615356,0.132751,0.763245,1.742096,-3.312225,-0.523376,1,1,1,1,1,40.000000
2023-08-28 20:23:04.293,,,,,,,,,,,,,,,,,,,,,,,,,,,,,,,,,,,,,,/muse/elements/blink
2023-08-28 20:23:04.492,,,,,,,,,,,,,,,,,,,,,,,,,,,,,,,,,,,,,,/muse/elements/jaw_clench
2023-08-28 20:23:04.644,0.2925687355791683,0.8182531591209592,0.3438137510534823,0.7817069086513068,0.1500938838306857,0.9077682566839341,0.5535386074931069,0.4526941362055819,0.570411138283196,1.214332705830296,0.6209386083751505,0.7179730729107978,1.093851288421718,1.296914637947373,1.258350891388704,1.198207102479566,1.298908288060737,1.188438479449809,0.9573061338181278,0.6601323817938676,0,785.3113553113553,790.5494505494506,896.5201465201466,931.5750915750916,-0.748169,0.166138,0.637451,0.755157,8.134766,4.194489,1,4,1,1,1,40.000000
2023-08-28 20:23:04.998,,,,,,,,,,,,,,,,,,,,,,,,,,,,,,,,,,,,,,/muse/elements/jaw_clench
2023-08-28 20:23:05.108,,,,,,,,,,,,,,,,,,,,,,,,,,,,,,,,,,,,,,/muse/elements/blink
2023-08-28 20:23:05.417,,,,,,,,,,,,,,,,,,,,,,,,,,,,,,,,,,,,,,/muse/elements/blink
2023-08-28 20:23:05.639,0.2925687355791683,0.8182531591209592,0.2771586774247534,0.7817069086513068,0.1500938838306857,0.9077682566839341,0.4491167293302525,0.4526941362055819,0.570411138283196,1.214332705830296,0.5987680457489036,0.7179730729107978,1.093851288421718,1.296914637947373,1.12790725491589,1.198207102479566,1.298908288060737,1.188438479449809,1.055647770238578,0.6601323817938676,1624.615384615385,845.7509157509157,746.6300366300367,782.893772893773,966.2271062271062,-0.762756,0.157288,0.620361,5.495453,-8.082428,-6.400146,1,4,1,1,1,40.000000
2023-08-28 20:23:06.639,0.2925687355791683,0.8182531591209592,0.2771586774247534,0.7817069086513068,0.1500938838306857,0.9077682566839341,0.4491167293302525,0.4526941362055819,0.570411138283196,1.214332705830296,0.5987680457489036,0.7179730729107978,1.093851288421718,1.296914637947373,1.12790725491589,1.198207102479566,1.298908288060737,1.188438479449809,1.055647770238578,0.6601323817938676,1512.197802197802,804.2490842490843,803.4432234432235,809.4871794871796,873.5531135531136,-0.722778,0.145874,0.668518,0.904694,-4.403839,0.134583,1,1,4,1,1,40.000000
2023-08-28 20:23:07.648,0.2925687355791683,0.8182531591209592,0.2771586774247534,0.7817069086513068,0.1500938838306857,0.9077682566839341,0.4491167293302525,0.4526941362055819,0.570411138283196,1.214332705830296,0.5987680457489036,0.7179730729107978,1.093851288421718,1.296914637947373,1.12790725491589,1.198207102479566,1.298908288060737,1.188438479449809,1.055647770238578,0.6601323817938676,1624.615384615385,819.5604395604396,794.1758241758242,741.7948717948718,754.2857142857143,-0.682068,0.129028,0.706238,0.336456,-5.846863,0.403748,1,2,1,1,2,40.000000
2023-08-28 20:23:08.639,0.2925687355791683,0.8182531591209592,0.2771586774247534,0.7817069086513068,0.1500938838306857,0.9077682566839341,0.4491167293302525,0.4526941362055819,0.570411138283196,1.214332705830296,0.5987680457489036,0.7179730729107978,1.093851288421718,1.296914637947373,1.12790725491589,1.198207102479566,1.298908288060737,1.188438479449809,1.055647770238578,0.6601323817938676,1624.615384615385,815.5311355311355,755.4945054945055,830.8424908424909,679.7435897435897,-0.668274,0.132446,0.730957,5.136566,-4.837494,-5.929108,1,4,1,1,2,40.000000
2023-08-28 20:23:08.898,,,,,,,,,,,,,,,,,,,,,,,,,,,,,,,,,,,,,,/muse/elements/jaw_clench
2023-08-28 20:23:09.185,,,,,,,,,,,,,,,,,,,,,,,,,,,,,,,,,,,,,,/muse/elements/blink
2023-08-28 20:23:09.639,0.2925687355791683,0.8182531591209592,0.2771586774247534,0.7817069086513068,0.1500938838306857,0.9077682566839341,0.4491167293302525,0.4526941362055819,0.570411138283196,1.214332705830296,0.5987680457489036,0.7179730729107978,1.093851288421718,1.296914637947373,1.12790725491589,1.198207102479566,1.298908288060737,1.188438479449809,1.055647770238578,0.6601323817938676,1487.216117216117,826.8131868131868,798.6080586080586,737.7655677655678,587.8754578754579,-0.709961,0.126526,0.687317,2.654266,-7.768402,0.725250,1,4,1,1,2,40.000000
2023-08-28 20:23:09.872,,,,,,,,,,,,,,,,,,,,,,,,,,,,,,,,,,,,,,/muse/elements/blink
2023-08-28 20:23:10.311,,,,,,,,,,,,,,,,,,,,,,,,,,,,,,,,,,,,,,/muse/elements/blink
2023-08-28 20:23:10.311,,,,,,,,,,,,,,,,,,,,,,,,,,,,,,,,,,,,,,/muse/elements/jaw_clench
2023-08-28 20:23:10.579,,,,,,,,,,,,,,,,,,,,,,,,,,,,,,,,,,,,,,/muse/elements/blink
2023-08-28 20:23:10.579,,,,,,,,,,,,,,,,,,,,,,,,,,,,,,,,,,,,,,/muse/elements/jaw_clench
2023-08-28 20:23:10.639,0.2925687355791683,0.8182531591209592,0.2771586774247534,0.7817069086513068,0.1500938838306857,0.9077682566839341,0.4491167293302525,0.4526941362055819,0.570411138283196,1.214332705830296,0.5987680457489036,0.7179730729107978,1.093851288421718,1.296914637947373,1.12790725491589,1.198207102479566,1.298908288060737,1.188438479449809,1.055647770238578,0.6601323817938676,170.8424908424909,848.974358974359,782.0879120879121,762.3443223443223,622.1245421245421,-0.671997,0.158020,0.713440,-3.110352,-5.547791,5.024414,1,4,1,1,2,40.000000
2023-08-28 20:23:11.086,,,,,,,,,,,,,,,,,,,,,,,,,,,,,,,,,,,,,,/muse/elements/jaw_clench
2023-08-28 20:23:11.418,,,,,,,,,,,,,,,,,,,,,,,,,,,,,,,,,,,,,,/muse/elements/jaw_clench
2023-08-28 20:23:11.617,,,,,,,,,,,,,,,,,,,,,,,,,,,,,,,,,,,,,,/muse/elements/jaw_clench
2023-08-28 20:23:11.639,0.2925687355791683,0.8182531591209592,0.2771586774247534,0.7817069086513068,0.1500938838306857,0.9077682566839341,0.4491167293302525,0.4526941362055819,0.570411138283196,1.214332705830296,0.5987680457489036,0.7179730729107978,1.093851288421718,1.296914637947373,1.12790725491589,1.198207102479566,1.298908288060737,1.188438479449809,1.055647770238578,0.6601323817938676,420.2564102564103,793.3699633699634,786.5201465201466,659.5970695970697,618.4981684981685,-0.650757,0.146912,0.733459,4.433746,-2.108459,-2.811279,1,4,1,1,2,40.000000
2023-08-28 20:23:11.818,,,,,,,,,,,,,,,,,,,,,,,,,,,,,,,,,,,,,,/muse/elements/blink
2023-08-28 20:23:11.974,,,,,,,,,,,,,,,,,,,,,,,,,,,,,,,,,,,,,,/muse/elements/jaw_clench
2023-08-28 20:23:12.135,,,,,,,,,,,,,,,,,,,,,,,,,,,,,,,,,,,,,,/muse/elements/jaw_clench
2023-08-28 20:23:12.406,,,,,,,,,,,,,,,,,,,,,,,,,,,,,,,,,,,,,,/muse/elements/jaw_clench
2023-08-28 20:23:12.639,0.2925687355791683,0.8182531591209592,0.2771586774247534,0.7817069086513068,0.1500938838306857,0.9077682566839341,0.4491167293302525,0.4526941362055819,0.570411138283196,1.214332705830296,0.5987680457489036,0.7179730729107978,1.093851288421718,1.296914637947373,1.12790725491589,1.198207102479566,1.298908288060737,1.188438479449809,1.055647770238578,0.6601323817938676,1224.505494505495,768.7912087912088,761.1355311355312,767.985347985348,597.5457875457876,-0.651917,0.153870,0.736694,1.562653,-3.970184,-0.807495,1,4,1,1,2,40.000000
2023-08-28 20:23:13.010,,,,,,,,,,,,,,,,,,,,,,,,,,,,,,,,,,,,,,/muse/elements/blink
2023-08-28 20:23:13.645,0.2925687355791683,-0.1827527722500828,0.2771586774247534,0.7817069086513068,0.1500938838306857,0.6433149588227627,0.4491167293302525,0.4526941362055819,0.570411138283196,0.8574404924570633,0.5987680457489036,0.7179730729107978,1.093851288421718,1.626368689156092,1.12790725491589,1.198207102479566,1.298908288060737,1.280505278617096,1.055647770238578,0.6601323817938676,834.8717948717949,815.1282051282052,799.4139194139194,744.6153846153846,800.2197802197802,-0.640198,0.153198,0.743042,1.398163,-4.732819,-0.643005,1,4,1,1,2,40.000000
2023-08-28 20:23:14.460,,,,,,,,,,,,,,,,,,,,,,,,,,,,,,,,,,,,,,/muse/elements/blink
2023-08-28 20:23:14.648,0.2925687355791683,0.1048454982951195,0.6457870417729946,0.7817069086513068,0.1500938838306857,0.6229220001432677,0.4035786640347744,0.4526941362055819,0.570411138283196,0.993097599259829,0.559839682860933,0.7179730729107978,1.093851288421718,1.60365170878313,1.120661488622878,1.198207102479566,1.298908288060737,1.289969037276869,0.8308911829801214,0.6601323817938676,610.8424908424909,798.2051282051282,806.2637362637363,778.4615384615385,916.6666666666667,-0.641846,0.146423,0.748718,1.742096,-3.738403,-0.598145,1,4,1,1,2,40.000000
2023-08-28 20:23:15.646,0.2925687355791683,0.04367488855485529,0.4796974299651689,0.7817069086513068,0.1500938838306857,0.06581180997537592,0.08994430367531075,0.4526941362055819,0.570411138283196,0.9056230505421631,0.6622632790562136,0.7179730729107978,1.093851288421718,1.398079077242217,1.174486970482748,1.198207102479566,1.298908288060737,1.129542290246569,0.8846149683476949,0.6601323817938676,832.8571428571429,781.6849816849817,793.7728937728938,786.9230769230769,842.9304029304029,-0.635132,0.151245,0.748230,1.831818,-3.319702,-0.657959,1,2,1,1,2,40.000000
2023-08-28 20:23:15.968,,,,,,,,,,,,,,,,,,,,,,,,,,,,,,,,,,,,,,/muse/elements/blink
2023-08-28 20:23:16.644,0.2925687355791683,0.2577502924804377,0.2528429822818408,0.7817069086513068,0.1500938838306857,0.2273543890526539,0.301379696711314,0.4526941362055819,0.570411138283196,0.8928820213055901,0.6050464164968012,0.7179730729107978,1.093851288421718,1.447497074460926,1.092476375993754,1.198207102479566,1.298908288060737,1.125711440599263,0.7721342187902145,0.6601323817938676,556.0439560439561,804.2490842490843,780.8791208791209,813.1135531135532,979.5238095238095,-0.632690,0.150085,0.755798,2.145844,-3.072968,-0.882263,1,4,1,1,2,35.000000
2023-08-28 20:23:17.287,,,,,,,,,,,,,,,,,,,,,,,,,,,,,,,,,,,,,,/muse/elements/blink
2023-08-28 20:23:17.639,0.2925687355791683,0.2263133526433431,0.2741308000387004,0.7817069086513068,0.1500938838306857,-0.1069776023523929,0.4894509150999677,0.4526941362055819,0.570411138283196,1.031529593606575,0.5846363641796488,0.7179730729107978,1.093851288421718,1.362522375432071,1.130797848548087,1.198207102479566,1.298908288060737,1.216693471321381,0.8831385214272155,0.6601323817938676,596.3369963369963,804.2490842490843,798.2051282051282,835.6776556776557,890.4761904761905,-0.636475,0.149536,0.754761,2.213135,-4.336548,-0.074768,1,4,1,1,2,35.000000
2023-08-28 20:23:18.395,,,,,,,,,,,,,,,,,,,,,,,,,,,,,,,,,,,,,,/muse/elements/blink
2023-08-28 20:23:18.643,0.2925687355791683,0.2311118052838126,0.4217893125767503,0.7817069086513068,0.1500938838306857,-0.1602799979932123,0.5394475661962881,0.4526941362055819,0.570411138283196,0.9574072727542526,0.5489578732465462,0.7179730729107978,1.093851288421718,1.286005943836496,1.234973861184756,1.198207102479566,1.298908288060737,1.151626976558274,0.9447651771635714,0.6601323817938676,1004.908424908425,813.919413919414,801.8315018315019,804.2490842490843,597.948717948718,-0.633423,0.132080,0.752197,4.501038,-4.830017,-6.519775,1,4,1,1,2,35.000000
2023-08-28 20:23:19.023,,,,,,,,,,,,,,,,,,,,,,,,,,,,,,,,,,,,,,/muse/elements/jaw_clench
2023-08-28 20:23:19.537,,,,,,,,,,,,,,,,,,,,,,,,,,,,,,,,,,,,,,/muse/elements/jaw_clench
2023-08-28 20:23:19.639,0.2925687355791683,0.2311118052838126,0.4217893125767503,0.7817069086513068,0.1500938838306857,-0.1602799979932123,0.5394475661962881,0.4526941362055819,0.570411138283196,0.9574072727542526,0.5489578732465462,0.7179730729107978,1.093851288421718,1.286005943836496,1.234973861184756,1.198207102479566,1.298908288060737,1.151626976558274,0.9447651771635714,0.6601323817938676,571.7582417582418,841.3186813186813,801.8315018315019,805.4578754578755,1046.813186813187,-0.634705,0.128601,0.751587,0.530853,-2.721558,1.510315,1,4,1,1,2,35.000000
2023-08-28 20:23:19.718,,,,,,,,,,,,,,,,,,,,,,,,,,,,,,,,,,,,,,/muse/elements/jaw_clench
2023-08-28 20:23:19.966,,,,,,,,,,,,,,,,,,,,,,,,,,,,,,,,,,,,,,/muse/elements/jaw_clench
2023-08-28 20:23:20.147,,,,,,,,,,,,,,,,,,,,,,,,,,,,,,,,,,,,,,/muse/elements/jaw_clench
2023-08-28 20:23:20.638,0.2925687355791683,0.2311118052838126,0.4217893125767503,0.7817069086513068,0.1500938838306857,-0.1602799979932123,0.5394475661962881,0.4526941362055819,0.570411138283196,0.9574072727542526,0.5489578732465462,0.7179730729107978,1.093851288421718,1.286005943836496,1.234973861184756,1.198207102479566,1.298908288060737,1.151626976558274,0.9447651771635714,0.6601323817938676,1102.417582417582,767.5824175824176,781.2820512820513,724.8717948717949,564.1025641025641,-0.669556,0.141541,0.722778,-1.143951,-3.985138,1.525269,1,4,1,1,2,35.000000
2023-08-28 20:23:20.751,,,,,,,,,,,,,,,,,,,,,,,,,,,,,,,,,,,,,,/muse/elements/blink
2023-08-28 20:23:20.843,,,,,,,,,,,,,,,,,,,,,,,,,,,,,,,,,,,,,,/muse/elements/jaw_clench
2023-08-28 20:23:21.639,0.2925687355791683,0.2311118052838126,0.4217893125767503,0.7817069086513068,0.1500938838306857,-0.1602799979932123,0.5394475661962881,0.4526941362055819,0.570411138283196,0.9574072727542526,0.5489578732465462,0.7179730729107978,1.093851288421718,1.286005943836496,1.234973861184756,1.198207102479566,1.298908288060737,1.151626976558274,0.9447651771635714,0.6601323817938676,790.5494505494506,822.7838827838829,797.8021978021978,747.032967032967,577.3992673992674,-0.648987,0.137085,0.732239,1.943970,-4.276733,-0.822449,1,4,1,1,2,35.000000
2023-08-28 20:23:22.639,0.2925687355791683,0.4432897948029315,0.4185412535272781,0.7817069086513068,0.1500938838306857,0.1463099578124167,0.3138453450486637,0.4526941362055819,0.570411138283196,0.8660359858098367,0.56211385471593,0.7179730729107978,1.093851288421718,1.478770928731453,1.293184343231193,1.198207102479566,1.298908288060737,1.205874731899184,0.751665822491418,0.6601323817938676,1448.937728937729,810.2930402930403,798.6080586080586,743.0036630036631,719.2307692307693,-0.641968,0.133789,0.742920,1.712189,-2.886047,-0.396271,1,4,1,1,2,35.000000
2023-08-28 20:23:23.639,0.2925687355791683,0.2226901321028365,0.4769477245437163,0.7817069086513068,0.1500938838306857,0.3526618628220601,0.3589924649136965,0.4526941362055819,0.570411138283196,0.8963827826755764,0.544702542070617,0.7179730729107978,1.093851288421718,1.467668194167618,1.339456254369169,1.198207102479566,1.298908288060737,1.075728569182387,0.6415095310757426,0.6601323817938676,1054.871794871795,836.4835164835165,793.7728937728938,770.8058608058608,676.9230769230769,-0.637268,0.133240,0.750549,1.876678,-3.970184,-0.254211,1,4,1,1,2,35.000000
2023-08-28 20:23:24.650,0.2925687355791683,-0.08165239891947781,0.6433719817263177,1.083233129805548,0.1500938838306857,0.3308225775248078,0.2732065337821706,1.190639187756281,0.570411138283196,0.7316758465316997,0.5397092101685509,0.9479158154246746,1.093851288421718,1.413912244496977,1.222616932347287,1.318821543034815,1.298908288060737,1.121971812476283,0.8186527348888434,0.8514685246584818,0,777.2527472527473,812.3076923076924,765.9706959706959,841.7216117216118,-0.632446,0.134460,0.751343,2.033691,-3.312225,-0.657959,1,4,1,1,1,35.000000
2023-08-28 20:23:25.639,0.2925687355791683,0.1883302033911646,0.6646320738588154,1.120946793824103,0.1500938838306857,0.4312605654978436,0.2203782065341117,1.149144837204708,0.570411138283196,0.9725685831450486,0.5230154025760487,0.9252323558238865,1.093851288421718,1.317651790312777,1.195354836499454,1.31711806192446,1.298908288060737,1.140540565599196,0.7533506868439535,0.856885302672836,666.0439560439561,792.1611721611722,799.8168498168499,794.5787545787546,905.3846153846154,-0.635376,0.130310,0.751282,1.757050,-3.499146,-0.680389,1,4,1,1,1,35.000000
2023-08-28 20:23:26.638,0.2925687355791683,0.2409820898067996,0.1606062268157836,0.413503417571274,0.1500938838306857,0.3755043180923568,-0.05479365814396171,0.7539712120182606,0.570411138283196,1.02395255533725,0.3357001030811132,0.6387499501402296,1.093851288421718,1.046221175251977,1.188421326083559,1.035572565120985,1.298908288060737,1.070455827747006,0.7727673046353192,0.8294753267174101,446.043956043956,819.96336996337,805.8608058608058,812.3076923076924,926.7399267399268,-0.636597,0.133179,0.752258,2.654266,-2.624359,-0.800018,1,4,1,1,1,35.000000
2023-08-28 20:23:27.647,0.2925687355791683,0.09973385234422062,0.1968525986718088,0.6797526426645778,0.1500938838306857,0.2840424175837902,-0.1755734704200818,0.7936358744708144,0.570411138283196,0.7577731504271773,0.28000325730579,0.5513634101495247,1.093851288421718,1.380571476992653,1.178945418840512,1.155685085536682,1.298908288060737,1.156834838844114,0.8192307363796136,0.7977078379836342,1463.443223443224,801.4285714285714,751.4652014652015,822.3809523809524,871.1355311355312,-0.635925,0.137756,0.750854,3.327179,-4.568329,-3.835602,1,4,1,1,1,45.000000
2023-08-28 20:23:28.143,,,,,,,,,,,,,,,,,,,,,,,,,,,,,,,,,,,,,,/muse/elements/blink
2023-08-28 20:23:28.639,0.2925687355791683,0.08759395128919174,0.1779916697845374,0.8155146553723863,0.1500938838306857,0.2733666075645338,-0.1419003501545129,0.7953670315167883,0.570411138283196,0.6652694751848621,0.2472399586805575,0.5070977636490315,1.093851288421718,1.321783743739532,1.160069753751295,1.209082768603387,1.298908288060737,1.258812189960305,0.8258944283771511,0.8090270387051586,1624.615384615385,779.6703296703297,784.5054945054945,837.6923076923077,990.8058608058608,-0.635071,0.135437,0.750061,1.622467,-3.910370,-0.014954,1,4,1,1,1,45.000000
2023-08-28 20:23:29.639,0.2925687355791683,0.1301710261155278,0.2724466929727333,0.832175903985218,0.1500938838306857,0.3117141537604463,0.4792696523673964,1.190679659443898,0.570411138283196,0.7398906024710808,0.504934019766803,1.020873813262779,1.093851288421718,1.310091520408297,1.214055696066739,1.105859082849447,1.298908288060737,1.202684869254377,1.048890593221113,0.8344525893321547,1498.095238095238,817.5457875457876,806.6666666666667,784.1025641025641,838.901098901099,-0.629089,0.130371,0.757324,1.824341,-3.940277,-0.695343,1,2,1,1,1,45.000000
2023-08-28 20:23:30.639,0.2925687355791683,0.3226693257663985,0.5397804087858101,0.7691688646402227,0.1500938838306857,0.4293215376073382,0.4253438779458706,0.9624551123100423,0.570411138283196,0.8909123465222899,0.7988873711422543,1.037996095547841,1.093851288421718,1.219697552109895,1.190523063424047,1.119235746293607,1.298908288060737,1.175190310432467,0.9900638580086957,0.9643360190319422,1375.604395604396,803.4432234432235,799.4139194139194,783.2967032967033,987.985347985348,-0.624878,0.145813,0.753052,-3.005676,-2.444916,6.818848,1,4,1,1,1,45.000000
2023-08-28 20:23:31.100,,,,,,,,,,,,,,,,,,,,,,,,,,,,,,,,,,,,,,/muse/elements/blink
2023-08-28 20:23:31.638,0.2925687355791683,0.4568268903095715,0.6518252543175485,0.6836494826151849,0.1500938838306857,0.5123146782556216,0.319958778937515,0.3456733506760019,0.570411138283196,0.919934172855651,0.7975642613184799,0.6538026689289677,1.093851288421718,1.18774426449495,1.169556057309861,1.225139210454244,1.298908288060737,0.9786447331481418,0.9944965545370117,1.08907972590891,1204.358974358974,801.4285714285714,758.7179487179487,815.5311355311355,635.0183150183151,-0.626770,0.135681,0.757263,4.575806,-0.441132,-1.031799,1,4,1,1,1,45.000000
2023-08-28 20:23:32.642,0.2925687355791683,0.3456834122446783,0.6050346079151087,0.6836494826151849,0.1500938838306857,0.5755387147034232,0.3227849518896818,0.3456733506760019,0.570411138283196,0.8908053102716741,0.6912396846046384,0.6538026689289677,1.093851288421718,1.206300350571013,1.223923783269857,1.225139210454244,1.298908288060737,1.086910101783993,1.06204145110859,1.08907972590891,1627.032967032967,813.1135531135532,801.8315018315019,711.5750915750916,563.6996336996338,-0.644226,0.150269,0.737732,5.144043,-4.643097,-4.381409,1,4,1,1,1,45.000000
2023-08-28 20:23:33.639,0.2925687355791683,0.1219462705168945,0.4865447937345556,0.6836494826151849,0.1500938838306857,0.1067420309576884,0.3796099744699099,0.3456733506760019,0.570411138283196,0.5510123598191976,0.5967139896869419,0.6538026689289677,1.093851288421718,1.369880393699574,1.089733118421165,1.225139210454244,1.298908288060737,1.310407979351534,0.8661427363843572,1.08907972590891,122.4908424908425,836.4835164835165,805.4578754578755,759.5238095238095,463.7728937728938,-0.634338,0.160339,0.744629,-0.680389,-3.618774,1.338348,1,4,1,1,2,45.000000
2023-08-28 20:23:34.350,,,,,,,,,,,,,,,,,,,,,,,,,,,,,,,,,,,,,,/muse/elements/jaw_clench
2023-08-28 20:23:34.638,0.2925687355791683,0.1219462705168945,0.6548238583748036,0.6836494826151849,0.1500938838306857,0.1067420309576884,0.6512363187576496,0.3456733506760019,0.570411138283196,0.5510123598191976,0.8736860990314147,0.6538026689289677,1.093851288421718,1.369880393699574,1.25570399736396,1.225139210454244,1.298908288060737,1.310407979351534,0.8783584993253379,1.08907972590891,469.010989010989,808.6813186813187,799.8168498168499,799.4139194139194,581.025641025641,-0.634766,0.153503,0.745972,-0.837402,-3.050537,1.585083,1,4,1,1,2,45.000000
2023-08-28 20:23:35.638,0.2925687355791683,0.1219462705168945,0.7973882982171977,0.6836494826151849,0.1500938838306857,0.1067420309576884,0.8191311938575526,0.3456733506760019,0.570411138283196,0.5510123598191976,0.8661230379761319,0.6538026689289677,1.093851288421718,1.369880393699574,1.413368371619203,1.225139210454244,1.298908288060737,1.310407979351534,0.8865507916819225,1.08907972590891,1116.117216117216,790.952380952381,774.0293040293041,747.8388278388279,570.5494505494505,-0.624084,0.158325,0.758606,3.686066,-5.435638,-2.572021,1,4,1,1,2,45.000000
2023-08-28 20:23:36.638,0.2925687355791683,-0.1772292706378019,0.2952173811686332,0.6836494826151849,0.1500938838306857,0.452118488459908,0.2015021397504933,0.3456733506760019,0.570411138283196,0.6242515982311727,0.5893880929731593,0.6538026689289677,1.093851288421718,1.367109914090261,1.289605514109204,1.225139210454244,1.298908288060737,1.290962103803206,0.9437173779422605,1.08907972590891,1077.032967032967,812.3076923076924,799.0109890109891,743.0036630036631,683.7728937728938,-0.605652,0.151306,0.775391,4.052429,-2.856140,-3.618774,1,4,1,1,2,45.000000
2023-08-28 20:23:37.644,0.2925687355791683,-0.4461297767022575,0.4034085353550403,0.6836494826151849,0.1500938838306857,0.1045659925689912,0.1199107371293566,0.3456733506760019,0.570411138283196,0.4178148666421411,0.5249325695452551,0.6538026689289677,1.093851288421718,1.540995690685654,1.269315877653374,1.225139210454244,1.298908288060737,1.32500063019735,0.9569936541454179,1.08907972590891,612.4542124542124,786.1172161172161,810.2930402930403,796.996336996337,946.8864468864469,-0.611694,0.140015,0.767578,1.772003,-3.020630,-0.777588,1,4,1,1,2,35.000000
2023-08-28 20:23:38.639,0.2925687355791683,-0.003911340716798436,0.1789695205793266,0.5392273445277016,0.1500938838306857,0.3187747061463666,0.103474098566768,0.5905271370278858,0.570411138283196,0.7122539472014531,0.5830839622547137,0.7319043360469827,1.093851288421718,1.327806053719933,1.275113600980091,1.253387624384237,1.298908288060737,1.104359784457069,0.9518224088543219,0.887946375146303,1267.619047619048,819.96336996337,805.4578754578755,794.5787545787546,948.0952380952381,-0.608093,0.136597,0.765747,2.190704,-3.708496,-0.485992,1,4,1,1,1,35.000000
2023-08-28 20:23:39.639,0.2925687355791683,0.1137365908180019,0.1827185480207735,0.4869160667289265,0.1500938838306857,0.1876864198569556,-0.08573267590695204,0.3946929679321153,0.570411138283196,0.7454529272686218,0.545711014307258,0.739554072110599,1.093851288421718,1.075564052403946,1.299852620768818,1.161807528149016,1.298908288060737,0.889236457614195,0.9414406375134035,0.7749877906875203,969.4505494505495,774.4322344322345,786.1172161172161,825.6043956043957,914.2490842490843,-0.608093,0.138306,0.771729,2.190704,-3.349609,-0.433655,1,4,1,1,1,35.000000
2023-08-28 20:23:40.639,0.2925687355791683,0.01287244867743466,0.2863838109619338,0.5915085900268819,0.1500938838306857,-0.188920964730427,0.2890870535951099,0.5222712282382945,0.570411138283196,0.5170904836728143,0.7585467680323291,0.664593623770837,1.093851288421718,0.9832201815384521,1.142030024501179,1.096845222400717,1.298908288060737,0.8568774241580657,0.8900858005063148,0.7919338829743238,0,759.5238095238095,786.9230769230769,781.2820512820513,1013.772893772894,-0.606873,0.133728,0.771973,1.846771,-2.826233,-0.538330,1,4,1,1,1,35.000000
2023-08-28 20:23:41.639,0.2925687355791683,0.1061744897226247,-0.1290196548344461,0.5466433197123147,0.1500938838306857,0.2612802712503942,0.3052276966627716,0.6760702324219497,0.570411138283196,0.6190776845088124,0.7686247514885868,0.4998923162037339,1.093851288421718,1.108390831623793,1.154438587330926,1.130648086337222,1.298908288060737,0.8298486622645133,0.9740209861853386,0.791596752246275,236.1172161172161,751.0622710622711,784.1025641025641,809.4871794871796,771.6117216117216,-0.612610,0.136536,0.763123,1.884155,-3.304749,-0.620575,1,4,1,1,1,35.000000
2023-08-28 20:23:42.639,0.2925687355791683,0.01578800131201543,0.07406542066787219,0.3299538332635575,0.1500938838306857,0.3885024205642468,0.2011680647213048,0.2673010935364787,0.570411138283196,0.6641603144984909,0.518837249681015,0.5830973486188668,1.093851288421718,1.286412790933718,1.04002312170628,1.078170708298434,1.298908288060737,1.078048906711241,0.9868628866966558,0.9035942697882432,950.9157509157509,805.8608058608058,817.5457875457876,826.4102564102565,870.3296703296703,-0.604309,0.138977,0.771729,-1.196289,-2.557068,4.934692,1,4,1,1,1,35.000000
2023-08-28 20:23:43.639,0.2925687355791683,0.01756345726729756,0.2522294996651112,0.03173109516797653,0.1500938838306857,0.6293917415590036,0.1403963568991308,0.1829125368285489,0.570411138283196,0.8626859551553908,0.546078623010989,0.3754490907938233,1.093851288421718,1.343084612661416,1.174997971089156,1.029838448181451,1.298908288060737,1.105342041215521,0.9003570507511486,0.9089161777199715,408.974358974359,807.8754578754579,792.967032967033,794.981684981685,597.1428571428571,-0.607300,0.134705,0.771729,1.831818,-3.701019,-0.882263,1,4,1,1,1,35.000000
2023-08-28 20:23:44.239,,,,,,,,,,,,,,,,,,,,,,,,,,,,,,,,,,,,,,/muse/elements/blink
2023-08-28 20:23:44.639,0.2925687355791683,0.1022816091697076,0.05614637641151904,0.08434680043403125,0.1500938838306857,0.5755315041079425,0.6487272886685028,0.1559867224179843,0.570411138283196,0.8497488900493634,0.9698434747961506,0.296406502377884,1.093851288421718,1.247298253192312,0.8740004741560988,0.9884145645898921,1.298908288060737,1.031461477385074,0.8019032041121344,0.9055467849498534,1624.615384615385,751.8681318681319,786.1172161172161,826.007326007326,469.4139194139194,-0.598083,0.134644,0.782104,3.775787,-3.274841,-4.680481,1,1,1,1,1,35.000000
2023-08-28 20:23:45.646,0.2925687355791683,0.1706900957733608,0.281956593602705,0.08434680043403125,0.1500938838306857,0.4440879164209953,0.4982699258285542,0.1559867224179843,0.570411138283196,0.8900392348214767,1.000569613004879,0.296406502377884,1.093851288421718,1.265872054395192,1.064656617324473,0.9884145645898921,1.298908288060737,1.310244872104322,0.8854442579251074,0.9055467849498534,1244.652014652015,787.7289377289378,821.5750915750916,743.4065934065934,513.7362637362637,-0.592529,0.141479,0.784363,-0.919647,-2.729034,6.430054,1,2,1,1,2,35.000000
2023-08-28 20:23:46.639,0.2925687355791683,0.3249516167571824,0.4799976897704133,0.08434680043403125,0.1500938838306857,0.2890971701055346,0.4083051919631833,0.1559867224179843,0.570411138283196,0.8900392348214767,0.7318378452563274,0.296406502377884,1.093851288421718,1.224159346707891,1.172149319771974,0.9884145645898921,1.298908288060737,1.224970713433405,0.8850584465412901,0.9055467849498534,1150.3663003663,792.1611721611722,763.1501831501831,770,557.6556776556777,-0.597107,0.145020,0.774109,1.914062,-3.775787,-0.912170,1,2,1,1,2,35.000000
2023-08-28 20:23:47.639,0.2925687355791683,0.2862417955173385,0.5034105743222602,1.274355071204311,0.1500938838306857,-0.06167813994140603,0.3304946649314761,0.9002797605903591,0.570411138283196,0.7022761530892335,0.6749210396345374,1.050130542621381,1.093851288421718,1.49550808656147,1.115207292030893,1.263902861640486,1.298908288060737,1.108872804242128,0.8525700776489389,0.8551644477257078,1033.113553113553,785.7142857142858,789.7435897435897,742.1978021978023,645.4945054945055,-0.592224,0.144409,0.785278,1.592560,-3.992615,-0.770111,1,1,1,1,1,45.000000
2023-08-28 20:23:48.649,0.2925687355791683,0.2451885053227887,0.3699041757748266,0.9367259744228007,0.1500938838306857,-0.1530315864282173,0.1989786607074498,0.5658916336768627,0.570411138283196,0.7596713805579561,0.6646831837477778,0.779160920404988,1.093851288421718,1.304689193966135,1.062992959404289,1.066860207857149,1.298908288060737,0.958943748918617,0.7166881604927416,0.7861417821160304,454.9084249084249,815.934065934066,803.8461538461539,800.2197802197802,866.3003663003664,-0.589905,0.147827,0.783997,2.123413,-4.269257,-0.874786,1,1,1,1,1,45.000000
2023-08-28 20:23:49.315,,,,,,,,,,,,,,,,,,,,,,,,,,,,,,,,,,,,,,/muse/elements/blink
2023-08-28 20:23:49.491,,,,,,,,,,,,,,,,,,,,,,,,,,,,,,,,,,,,,,/muse/elements/jaw_clench
2023-08-28 20:23:49.639,0.2925687355791683,0.2806650122912661,0.4695319312291771,0.5758708972680681,0.1500938838306857,0.1127077444943936,0.2317279078366488,0.521381386308016,0.570411138283196,0.7913190360068727,0.5768731634243638,0.6918696933655417,1.093851288421718,1.259160647020937,1.106336301885957,1.132978158938637,1.298908288060737,1.044005037540589,0.9555957601488083,0.8006175888585495,267.5457875457876,789.7435897435897,784.5054945054945,873.1501831501831,912.2344322344322,-0.823242,0.192322,0.538269,5.973969,6.153412,-1.570129,1,4,1,1,1,45.000000
2023-08-28 20:23:49.819,,,,,,,,,,,,,,,,,,,,,,,,,,,,,,,,,,,,,,/muse/elements/blink
2023-08-28 20:23:49.819,,,,,,,,,,,,,,,,,,,,,,,,,,,,,,,,,,,,,,/muse/elements/jaw_clench
2023-08-28 20:23:50.638,0.2925687355791683,0.3223272922971345,0.4260363618164583,0.4235985748938909,0.1500938838306857,0.2805279878365653,0.4190846987575857,0.4330225101902554,0.570411138283196,0.3919809997005468,0.3607766174595729,0.6148583218069226,1.093851288421718,1.195845956680047,1.175087787551985,1.21120468949833,1.298908288060737,1.003250464728368,0.9487751753005649,0.8987031128761601,1647.985347985348,785.3113553113553,796.5934065934066,804.6520146520147,807.0695970695971,-0.778625,0.200256,0.584473,2.138367,-6.788940,-0.014954,1,4,1,1,1,45.000000
2023-08-28 20:23:50.942,,,,,,,,,,,,,,,,,,,,,,,,,,,,,,,,,,,,,,/muse/elements/blink
2023-08-28 20:23:51.315,,,,,,,,,,,,,,,,,,,,,,,,,,,,,,,,,,,,,,/muse/elements/blink
2023-08-28 20:23:51.639,0.2925687355791683,-0.1948772910713887,0.4260363618164583,0.4235985748938909,0.1500938838306857,0.01365398658494237,0.4190846987575857,0.4330225101902554,0.570411138283196,0.6453587474956494,0.3607766174595729,0.6148583218069226,1.093851288421718,1.460994293285292,1.175087787551985,1.21120468949833,1.298908288060737,1.482181559774659,0.9487751753005649,0.8987031128761601,0,781.6849816849817,769.5970695970697,816.3369963369963,968.2417582417582,-0.744995,0.183960,0.635132,0.628052,-6.445007,1.016846,1,4,1,1,1,45.000000
2023-08-28 20:23:51.733,,,,,,,,,,,,,,,,,,,,,,,,,,,,,,,,,,,,,,/muse/elements/blink
2023-08-28 20:23:51.822,,,,,,,,,,,,,,,,,,,,,,,,,,,,,,,,,,,,,,/muse/elements/jaw_clench
2023-08-28 20:23:52.237,,,,,,,,,,,,,,,,,,,,,,,,,,,,,,,,,,,,,,/muse/elements/blink
2023-08-28 20:23:52.646,0.2925687355791683,0.04464225243727502,0.539591354237445,0.4235985748938909,0.1500938838306857,0.2623448001870227,0.4870440456899129,0.4330225101902554,0.570411138283196,0.7875709619393823,0.6320763746904022,0.6148583218069226,1.093851288421718,1.413711176065112,1.211443537907116,1.21120468949833,1.298908288060737,1.44305676702583,0.9635479745438706,0.8987031128761601,363.4432234432235,765.5677655677656,807.0695970695971,884.0293040293041,1046.410256410256,-0.678833,0.160889,0.702637,-0.613098,-6.759033,1.211243,1,4,1,1,2,45.000000
2023-08-28 20:23:53.049,,,,,,,,,,,,,,,,,,,,,,,,,,,,,,,,,,,,,,/muse/elements/blink
2023-08-28 20:23:53.639,0.2925687355791683,0.0646690875639428,0.7010760816767753,0.4235985748938909,0.1500938838306857,0.3457256503133271,0.5374055709858812,0.4330225101902554,0.570411138283196,0.3977627961964355,0.603133492181547,0.6148583218069226,1.093851288421718,1.138871740759656,0.8869920887802702,1.21120468949833,1.298908288060737,1.447292445235295,0.9118955786990207,0.8987031128761601,1583.516483516484,805.8608058608058,787.7289377289378,763.1501831501831,844.9450549450549,-0.647644,0.161865,0.729736,2.377625,-5.278625,-2.168274,1,4,1,1,2,45.000000
2023-08-28 20:23:54.081,,,,,,,,,,,,,,,,,,,,,,,,,,,,,,,,,,,,,,/muse/elements/blink
2023-08-28 20:23:54.639,0.2925687355791683,0.1383271221758922,0.5980408110858491,0.4235985748938909,0.1500938838306857,0.3883911771176803,0.4416866613674936,0.4330225101902554,0.570411138283196,0.7813127923251871,0.4946687841807518,0.6148583218069226,1.093851288421718,1.347015022229656,0.8818939599079809,1.21120468949833,1.298908288060737,1.030714614883667,0.933049943857483,0.8987031128761601,1326.043956043956,795.7875457875458,814.7252747252747,818.3516483516484,929.1575091575091,-0.643616,0.170715,0.739258,1.966400,-4.373932,-1.936493,1,4,1,1,2,45.000000
2023-08-28 20:23:55.647,0.2925687355791683,0.275763038980367,0.03467594112760609,1.186823462589029,0.1500938838306857,0.3267446041704534,0.08965432749842683,0.5453671798159218,0.570411138283196,0.8632871285970646,0.4111742312672944,1.020342696255938,1.093851288421718,1.147408908861933,1.173207218098784,1.071746982565966,1.298908288060737,1.049690673453399,0.8435110154699883,1.050682412173164,1624.615384615385,803.8461538461539,794.1758241758242,804.2490842490843,869.92673992674,-0.626831,0.164490,0.748718,2.063599,-3.783264,-1.069183,1,4,1,1,1,45.000000
2023-08-28 20:23:56.638,0.2925687355791683,0.3144160081322945,0.09371951928470218,1.249815245035383,0.1500938838306857,0.2670140404488389,0.09864804545658161,1.017306534510969,0.570411138283196,0.7636975461913429,0.4338678251600614,1.059624397615801,1.093851288421718,1.097699586336546,1.051048141820441,1.111336258027471,1.298908288060737,1.066130952414677,0.6957474733980813,0.9457071790770321,1495.677655677656,821.978021978022,795.3846153846154,777.6556776556777,757.1062271062272,-0.625916,0.165955,0.751587,1.712189,-3.626251,-0.291595,1,4,1,1,1,45.000000
2023-08-28 20:23:57.639,0.2925687355791683,-0.06819668225845321,0.1693509454094442,1.341175485657786,0.1500938838306857,-0.08089056038506375,0.1573198186388612,1.253817614500129,0.570411138283196,0.6132355688244835,0.3717120910525034,0.8272652412188574,1.093851288421718,1.16280714749206,1.092153407145861,1.185175324434198,1.298908288060737,1.037525755269078,0.6634908329870105,0.7867458347194354,1062.930402930403,796.1904761904763,784.5054945054945,766.3736263736264,711.5750915750916,-0.619751,0.162903,0.758972,1.495361,-3.992615,-0.553284,1,4,1,1,1,45.000000
2023-08-28 20:23:58.638,0.2925687355791683,0.01559478069493089,0.4001821273040935,1.059231188222236,0.1500938838306857,0.01853303872328445,0.1329665476653316,0.6189990612630936,0.570411138283196,0.7306696351014438,0.5205854388406882,0.626730901073858,1.093851288421718,1.118807901078761,1.060586755778334,0.9476930908952337,1.298908288060737,0.7811163308238038,0.8323526942203189,0.3275350901583403,255.8608058608059,807.0695970695971,787.7289377289378,767.1794871794872,588.6813186813187,-0.616943,0.158203,0.759094,1.742096,-3.738403,-0.747681,1,4,1,1,1,40.000000
2023-08-28 20:23:59.638,0.2925687355791683,0.1633875371705036,0.4955148097127041,0.960264269496475,0.1500938838306857,0.1869626555720428,0.2473863539535629,0.871914967389256,0.570411138283196,0.6178731355780341,0.6286945570787827,0.9966324845826673,1.093851288421718,1.20572924300608,0.8804926249448898,1.10189479883361,1.298908288060737,0.8829472398549941,0.5472811663342436,0.6543305067623139,0,764.3589743589744,774.8351648351648,753.8827838827839,510.9157509157509,-0.617310,0.162170,0.764832,3.835602,-3.491669,-3.551483,1,4,1,1,1,40.000000
2023-08-28 20:24:00.358,,,,,,,,,,,,,,,,,,,,,,,,,,,,,,,,,,,,,,/muse/elements/blink
2023-08-28 20:24:00.554,,,,,,,,,,,,,,,,,,,,,,,,,,,,,,,,,,,,,,/muse/elements/jaw_clench
2023-08-28 20:24:00.638,0.2925687355791683,0.05522158779786288,0.565624808062913,0.8255080004247651,0.1500938838306857,0.1248354362705946,0.3406416953435089,0.8055559446135978,0.570411138283196,0.5216324747952756,0.7532259716593854,0.7467649301456958,1.093851288421718,1.138629794794429,1.105557103366988,1.188051204010605,1.298908288060737,1.117440757488388,0.615621359800738,0.6474301654169852,1624.615384615385,774.8351648351648,771.6117216117216,950.1098901098901,647.9120879120879,-0.659180,0.137085,0.726868,3.656158,-4.291687,-8.665619,1,4,1,1,1,40.000000
2023-08-28 20:24:01.638,0.2925687355791683,0.0259043773375697,0.6320665612727695,0.8255080004247651,0.1500938838306857,0.2011144218568348,0.4511602366493156,0.8055559446135978,0.570411138283196,0.370376649453488,0.7443799158355953,0.7467649301456958,1.093851288421718,1.208424703788709,1.156110069066287,1.188051204010605,1.298908288060737,1.158274624824916,0.686832847944274,0.6474301654169852,1266.813186813187,800.2197802197802,800.6227106227107,838.4981684981685,685.7875457875458,-0.629761,0.143494,0.748474,-2.429962,-2.467346,6.609497,1,1,1,1,1,40.000000
2023-08-28 20:24:02.638,0.2925687355791683,0.04629518474983657,0.6320665612727695,0.8255080004247651,0.1500938838306857,0.2419792079600157,0.4511602366493156,0.8055559446135978,0.570411138283196,0.8865467969942931,0.7443799158355953,0.7467649301456958,1.093851288421718,1.361229115507814,1.156110069066287,1.188051204010605,1.298908288060737,1.374182503623872,0.686832847944274,0.6474301654169852,351.3553113553114,767.5824175824176,800.2197802197802,689.4139194139194,622.1245421245421,-0.611572,0.145386,0.764648,1.846771,-4.029999,-0.538330,1,2,1,1,2,40.000000
2023-08-28 20:24:03.638,0.2925687355791683,0.07090490025168607,0.568112397543807,0.8255080004247651,0.1500938838306857,0.05087537414955899,0.1814010981499522,0.8055559446135978,0.570411138283196,0.8892726009750617,0.5237976286712422,0.7467649301456958,1.093851288421718,1.226241901187795,1.258799612572411,1.188051204010605,1.298908288060737,1.175426930788688,0.8886046358853409,0.6474301654169852,0,809.0842490842491,781.6849816849817,751.8681318681319,734.5421245421246,-0.608826,0.139404,0.769653,1.869202,-3.349609,-1.241150,1,4,1,1,2,40.000000
2023-08-28 20:24:04.638,0.2925687355791683,0.3334520474469056,0.3225510781793505,0.8255080004247651,0.1500938838306857,0.03907920820593613,0.2082486951127491,0.8055559446135978,0.570411138283196,0.6696250512289434,0.2626874085856305,0.7467649301456958,1.093851288421718,1.107632833131553,1.101615903878094,1.188051204010605,1.298908288060737,0.9943059498499429,0.7370712602279308,0.6474301654169852,1440.476190476191,802.2344322344322,788.1318681318681,790.5494505494506,946.0805860805862,-0.606506,0.139465,0.775818,1.981354,-3.312225,-1.069183,1,4,1,1,2,40.000000
2023-08-28 20:24:05.134,,,,,,,,,,,,,,,,,,,,,,,,,,,,,,,,,,,,,,/muse/elements/blink
2023-08-28 20:24:05.244,,,,,,,,,,,,,,,,,,,,,,,,,,,,,,,,,,,,,,/muse/elements/jaw_clench
2023-08-28 20:24:05.550,,,,,,,,,,,,,,,,,,,,,,,,,,,,,,,,,,,,,,/muse/elements/blink
2023-08-28 20:24:05.638,0.2925687355791683,0.3951140965358231,0.286018177410869,0.3330558696323336,0.1500938838306857,0.2474624173079926,0.2703323596419066,0.7623857054629092,0.570411138283196,0.6568903903544598,0.2541483405051522,0.7600156712455702,1.093851288421718,1.137393166247877,0.8690607709178807,1.067279373558539,1.298908288060737,0.9911031740259685,0.7876392091190831,0.6607734040661793,6.043956043956044,803.040293040293,800.6227106227107,979.1208791208792,901.3553113553114,-0.771240,0.206787,0.591248,-0.186920,-19.342499,8.493652,1,4,1,1,1,40.000000
2023-08-28 20:24:06.638,0.2925687355791683,0.2667194173464729,0.3616822528494806,0.2851286423674622,0.1500938838306857,0.2263957429467696,0.0636328205880044,0.7389688239356459,0.570411138283196,0.4871246890822193,-0.01908367791595645,0.7540121915995748,1.093851288421718,1.149871399948566,0.828841239383115,1.039910714077601,1.298908288060737,0.8711672995928743,0.8687386821070758,0.6870890988265231,74.13919413919415,787.7289377289378,823.1868131868132,698.2783882783883,853.0036630036631,-0.738281,0.270508,0.626099,1.921539,-11.222687,1.495361,1,4,1,1,1,40.000000
2023-08-28 20:24:06.647,,,,,,,,,,,,,,,,,,,,,,,,,,,,,,,,,,,,,,/muse/elements/blink
2023-08-28 20:24:07.485,,,,,,,,,,,,,,,,,,,,,,,,,,,,,,,,,,,,,,/muse/elements/blink
2023-08-28 20:24:07.649,0.2925687355791683,0.07065692677680988,0.3616822528494806,0.2851286423674622,0.1500938838306857,0.164388116588078,0.0636328205880044,0.7389688239356459,0.570411138283196,0.6044975856138849,-0.01908367791595645,0.7540121915995748,1.093851288421718,1.449742403638636,0.828841239383115,1.039910714077601,1.298908288060737,1.263250926860375,0.8687386821070758,0.6870890988265231,1626.227106227106,789.3406593406594,753.4798534798535,824.3956043956044,1000.07326007326,-0.686523,0.210388,0.678589,5.622559,-7.925415,-10.190887,1,4,1,1,2,40.000000
2023-08-28 20:24:07.770,,,,,,,,,,,,,,,,,,,,,,,,,,,,,,,,,,,,,,/muse/elements/blink
2023-08-28 20:24:08.184,,,,,,,,,,,,,,,,,,,,,,,,,,,,,,,,,,,,,,/muse/elements/blink
2023-08-28 20:24:08.638,0.2925687355791683,-0.1123334768248348,0.3616822528494806,0.2851286423674622,0.1500938838306857,-0.03550921011226078,0.0636328205880044,0.7389688239356459,0.570411138283196,0.7395275519181541,-0.01908367791595645,0.7540121915995748,1.093851288421718,1.36859283095294,0.828841239383115,1.039910714077601,1.298908288060737,1.29004826846838,0.8687386821070758,0.6870890988265231,1031.904761904762,787.3260073260074,800.2197802197802,732.5274725274726,894.908424908425,-0.659790,0.178772,0.710510,4.127197,-5.973969,-4.807587,1,4,1,1,2,45.000000
2023-08-28 20:24:08.780,,,,,,,,,,,,,,,,,,,,,,,,,,,,,,,,,,,,,,/muse/elements/blink
2023-08-28 20:24:08.890,,,,,,,,,,,,,,,,,,,,,,,,,,,,,,,,,,,,,,/muse/elements/jaw_clench
2023-08-28 20:24:09.066,,,,,,,,,,,,,,,,,,,,,,,,,,,,,,,,,,,,,,/muse/elements/blink
2023-08-28 20:24:09.306,,,,,,,,,,,,,,,,,,,,,,,,,,,,,,,,,,,,,,/muse/elements/jaw_clench
2023-08-28 20:24:09.394,,,,,,,,,,,,,,,,,,,,,,,,,,,,,,,,,,,,,,/muse/elements/blink
2023-08-28 20:24:09.505,,,,,,,,,,,,,,,,,,,,,,,,,,,,,,,,,,,,,,/muse/elements/jaw_clench
2023-08-28 20:24:09.638,0.2925687355791683,-0.1954443546335416,0.3616822528494806,0.2851286423674622,0.1500938838306857,-0.09333420350010706,0.0636328205880044,0.7389688239356459,0.570411138283196,0.7160169785270889,-0.01908367791595645,0.7540121915995748,1.093851288421718,1.34584896292316,0.828841239383115,1.039910714077601,1.298908288060737,1.274431247088632,0.8687386821070758,0.6870890988265231,1228.937728937729,786.5201465201466,778.4615384615385,828.8278388278388,1077.435897435897,-0.667053,0.178589,0.718872,0.874786,-4.052429,0.657959,1,4,1,1,2,45.000000
2023-08-28 20:24:10.430,,,,,,,,,,,,,,,,,,,,,,,,,,,,,,,,,,,,,,/muse/elements/blink
2023-08-28 20:24:10.638,0.2925687355791683,-0.1954443546335416,0.3195280709475407,0.2851286423674622,0.1500938838306857,-0.09333420350010706,0.3226340772769031,0.7389688239356459,0.570411138283196,0.7160169785270889,0.5855332513243093,0.7540121915995748,1.093851288421718,1.34584896292316,1.251838406001438,1.039910714077601,1.298908288060737,1.274431247088632,0.929099897873974,0.6870890988265231,0,786.9230769230769,786.1172161172161,876.7765567765568,796.5934065934066,-0.629272,0.168091,0.751648,2.325287,-7.185211,-3.020630,1,4,1,1,2,45.000000
2023-08-28 20:24:10.893,,,,,,,,,,,,,,,,,,,,,,,,,,,,,,,,,,,,,,/muse/elements/blink
2023-08-28 20:24:11.049,,,,,,,,,,,,,,,,,,,,,,,,,,,,,,,,,,,,,,/muse/elements/jaw_clench
2023-08-28 20:24:11.228,,,,,,,,,,,,,,,,,,,,,,,,,,,,,,,,,,,,,,/muse/elements/blink
2023-08-28 20:24:11.638,0.2925687355791683,-0.1954443546335416,0.4593573057359457,0.2851286423674622,0.1500938838306857,-0.09333420350010706,0.3586258618233129,0.7389688239356459,0.570411138283196,0.7160169785270889,0.7732719754824418,0.7540121915995748,1.093851288421718,1.34584896292316,1.178291371853277,1.039910714077601,1.298908288060737,1.274431247088632,0.7781350190859001,0.6870890988265231,519.7802197802198,803.4432234432235,814.3223443223443,759.5238095238095,624.1391941391942,-0.614624,0.166016,0.764160,3.790741,-4.291687,-1.577606,1,4,1,1,2,45.000000
2023-08-28 20:24:11.755,,,,,,,,,,,,,,,,,,,,,,,,,,,,,,,,,,,,,,/muse/elements/blink
2023-08-28 20:24:12.645,0.2925687355791683,0.217081775092834,0.4524311864817528,0.2851286423674622,0.1500938838306857,0.2701986899797739,0.297762799869724,0.7389688239356459,0.570411138283196,0.5358355568952317,0.7839169928351279,0.7540121915995748,1.093851288421718,1.268711704480256,1.181747506750142,1.039910714077601,1.298908288060737,1.272532867137667,0.7809641467700348,0.6870890988265231,796.1904761904763,808.6813186813187,788.5347985347986,735.3479853479854,481.0989010989011,-0.609009,0.145691,0.771362,2.676697,-3.835602,-0.493469,1,4,1,1,2,45.000000
2023-08-28 20:24:13.158,,,,,,,,,,,,,,,,,,,,,,,,,,,,,,,,,,,,,,/muse/elements/blink
2023-08-28 20:24:13.637,0.2925687355791683,0.1660312645973037,-0.1379245447169756,0.2851286423674622,0.1500938838306857,0.3320858806223537,-0.1647878196659168,0.7389688239356459,0.570411138283196,0.619810794886665,0.6439558640746571,0.7540121915995748,1.093851288421718,1.170747948434232,1.190322078502348,1.039910714077601,1.298908288060737,1.213818270445434,0.8707129586796367,0.6870890988265231,829.2307692307693,807.8754578754579,801.4285714285714,732.5274725274726,557.2527472527472,-0.604980,0.162476,0.775818,-2.512207,-3.798218,6.527252,1,4,1,1,2,45.000000
2023-08-28 20:24:14.086,,,,,,,,,,,,,,,,,,,,,,,,,,,,,,,,,,,,,,/muse/elements/jaw_clench
2023-08-28 20:24:14.177,,,,,,,,,,,,,,,,,,,,,,,,,,,,,,,,,,,,,,/muse/elements/blink
2023-08-28 20:24:14.638,0.2925687355791683,0.2401570381022231,0.3125105253427606,0.2851286423674622,0.1500938838306857,0.3707798930116391,0.0927442057115096,0.7389688239356459,0.570411138283196,0.8251930372461993,0.7614108977356009,0.7540121915995748,1.093851288421718,1.335303155109444,1.234656055720706,1.039910714077601,1.298908288060737,1.255730031572879,0.9418430910076879,0.6870890988265231,966.6300366300367,785.7142857142858,825.6043956043957,877.985347985348,578.6080586080586,-0.632446,0.172852,0.744751,0.299072,-2.497253,1.786957,1,2,1,1,2,45.000000
2023-08-28 20:24:14.893,,,,,,,,,,,,,,,,,,,,,,,,,,,,,,,,,,,,,,/muse/elements/blink
2023-08-28 20:24:15.092,,,,,,,,,,,,,,,,,,,,,,,,,,,,,,,,,,,,,,/muse/elements/jaw_clench
2023-08-28 20:24:15.180,,,,,,,,,,,,,,,,,,,,,,,,,,,,,,,,,,,,,,/muse/elements/blink
2023-08-28 20:24:15.638,0.2925687355791683,0.4784637119470516,0.4571356941249344,0.2851286423674622,0.1500938838306857,0.5332979381180949,0.1768835891877414,0.7389688239356459,0.570411138283196,0.7816336310641444,0.6875721283351882,0.7540121915995748,1.093851288421718,1.360117654168432,1.204464044384642,1.039910714077601,1.298908288060737,1.313202394873828,0.8741084591714732,0.6870890988265231,784.1025641025641,768.7912087912088,783.6996336996338,760.3296703296703,601.1721611721612,-0.624939,0.168274,0.747803,2.572021,-3.962708,-1.764526,1,2,1,1,2,45.000000
2023-08-28 20:24:15.795,,,,,,,,,,,,,,,,,,,,,,,,,,,,,,,,,,,,,,/muse/elements/blink
2023-08-28 20:24:16.638,0.2925687355791683,0.01785385522371659,0.5590391448656179,0.2851286423674622,0.1500938838306857,-0.224044823777006,0.2682990591600108,0.7389688239356459,0.570411138283196,0.4521224597983384,0.2834597088359506,0.7540121915995748,1.093851288421718,1.437141830359945,1.126355605943781,1.039910714077601,1.298908288060737,1.220444020058347,0.9288365031963042,0.6870890988265231,641.8681318681319,781.2820512820513,797.8021978021978,773.6263736263736,608.8278388278388,-0.618347,0.159180,0.755981,1.375732,-3.828125,-0.717773,1,4,1,1,2,45.000000
2023-08-28 20:24:17.638,0.2925687355791683,-0.01938662108090491,0.5620105863549664,0.2851286423674622,0.1500938838306857,0.1017228500275518,0.2352564991086338,0.7389688239356459,0.570411138283196,0.6463584359985468,0.3653894142007035,0.7540121915995748,1.093851288421718,1.438608549681331,1.093116701005469,1.039910714077601,1.298908288060737,1.28187840800122,0.9788471944135022,0.6870890988265231,728.0952380952381,791.7582417582418,825.2014652014652,782.0879120879121,697.8754578754579,-0.613159,0.161377,0.760315,1.846771,-3.409424,-0.837402,1,4,1,1,2,45.000000
2023-08-28 20:24:18.037,,,,,,,,,,,,,,,,,,,,,,,,,,,,,,,,,,,,,,/muse/elements/blink
2023-08-28 20:24:18.635,,,,,,,,,,,,,,,,,,,,,,,,,,,,,,,,,,,,,,/muse/elements/blink
2023-08-28 20:24:18.645,0.2925687355791683,-0.3170846551230771,0.6237195032522196,0.2851286423674622,0.1500938838306857,0.3475805104809995,0.4820084505423691,0.7389688239356459,0.570411138283196,0.8170447762560041,0.8985787464214461,0.7540121915995748,1.093851288421718,1.375723003363115,1.144989450220602,1.039910714077601,1.298908288060737,1.155712026687134,0.9589641403112695,0.6870890988265231,1317.985347985348,789.7435897435897,792.5641025641025,797.8021978021978,844.9450549450549,-0.606995,0.161743,0.767090,2.100983,-9.002075,-0.964508,1,2,1,1,2,45.000000
2023-08-28 20:24:19.236,,,,,,,,,,,,,,,,,,,,,,,,,,,,,,,,,,,,,,/muse/elements/blink
2023-08-28 20:24:19.638,0.2925687355791683,-0.1877985521108101,0.4734786942706582,0.2851286423674622,0.1500938838306857,0.2520902276345818,0.3466159521127833,0.7389688239356459,0.570411138283196,0.8247451812702176,0.9186456837601009,0.7540121915995748,1.093851288421718,1.30274754734565,1.170002913364864,1.039910714077601,1.298908288060737,1.207724822148566,1.042090273973511,0.6870890988265231,690.2197802197802,772.8205128205128,805.8608058608058,786.9230769230769,805.0549450549451,-0.613037,0.156860,0.761841,6.056213,-3.992615,-7.245026,1,4,1,1,2,45.000000
2023-08-28 20:24:20.638,0.2925687355791683,0.155807700186938,0.5748919254808041,0.2851286423674622,0.1500938838306857,0.3279070511569648,0.05341042135616531,0.7389688239356459,0.570411138283196,0.6112790605386005,0.7023732543454293,0.7540121915995748,1.093851288421718,1.193960192396608,1.254448567528909,1.039910714077601,1.298908288060737,1.236970861714522,1.084377947480363,0.6870890988265231,775.2380952380953,793.7728937728938,805.4578754578755,805.0549450549451,884.8351648351648,-0.619507,0.146851,0.758179,1.360779,-3.581390,-0.979462,1,4,1,1,2,45.000000
2023-08-28 20:24:21.638,0.2925687355791683,0.3978754947409511,0.5055010769594502,0.2851286423674622,0.1500938838306857,0.6236437984197497,0.6198214764866347,0.7389688239356459,0.570411138283196,0.8552552020000482,0.02309243144046131,0.7540121915995748,1.093851288421718,1.266041540208743,1.079532954271804,1.039910714077601,1.298908288060737,1.184633748973654,0.7724630155327676,0.6870890988265231,1022.637362637363,794.5787545787546,792.5641025641025,811.9047619047619,1108.864468864469,-0.614014,0.145874,0.767090,1.861725,-3.925323,-0.994415,1,4,1,1,2,45.000000
2023-08-28 20:24:22.638,0.2925687355791683,0.2236472963189778,0.4724819087003719,0.6433742975002767,0.1500938838306857,0.3793276304832039,0.3918748982754603,0.8776394874004476,0.570411138283196,0.8064714454967294,0.6515670807073464,1.152567434365454,1.093851288421718,1.23915772024219,1.123059997445718,1.140649474852225,1.298908288060737,1.020909366155512,0.739615224654062,1.080909161113438,1384.065934065934,774.8351648351648,786.9230769230769,813.1135531135532,974.6886446886447,-0.608521,0.149963,0.760803,1.839294,-3.955231,-0.022430,1,2,1,1,1,45.000000
2023-08-28 20:24:23.638,0.2925687355791683,0.2808368637672123,0.3867721809645812,0.6471799279836008,0.1500938838306857,0.2392330093668348,0.4240443206897861,0.9510827957212197,0.570411138283196,0.6755268844673435,0.702816287163307,1.107932391142592,1.093851288421718,1.173387848152639,1.271946041488185,1.173182526859057,1.298908288060737,1.030628957778535,0.7869405348199476,1.015774453915278,948.0952380952381,790.952380952381,795.3846153846154,842.5274725274726,936.8131868131868,-0.611694,0.150024,0.769958,1.973877,-3.050537,-0.822449,1,4,1,1,1,45.000000
2023-08-28 20:24:24.639,0.2925687355791683,0.0434096145563012,0.3840775763782523,1.002944166320411,0.1500938838306857,0.3918027488954789,0.2497787702741454,0.970831475029729,0.570411138283196,0.7102973387631881,0.3033836530262558,1.074693183417791,1.093851288421718,1.152405974977294,1.040663537196322,1.1080130397729,1.298908288060737,1.025341621234725,0.4376036968640769,0.9959839214281647,744.6153846153846,835.6776556776557,790.5494505494506,803.8461538461539,919.4871794871796,-0.605469,0.153381,0.766663,1.592560,-2.287903,0.740204,1,2,1,1,1,45.000000
2023-08-28 20:24:25.426,,,,,,,,,,,,,,,,,,,,,,,,,,,,,,,,,,,,,,/muse/elements/blink
2023-08-28 20:24:25.638,0.2925687355791683,0.3380750482678304,0.5349858393413476,1.026348218536901,0.1500938838306857,0.6139762499928929,0.1895897657300276,0.8527510798361869,0.570411138283196,0.4921605019841138,0.3406613727871431,1.027272194692052,1.093851288421718,1.191749779608869,0.9734323431075426,1.085371679189711,1.298908288060737,1.082346365171237,0.5613404106333797,0.9939024214526777,647.5091575091575,821.1721611721612,819.1575091575091,912.2344322344322,626.1538461538462,-0.650269,0.178772,0.735168,-2.714081,2.243042,7.574005,1,4,1,1,1,45.000000
2023-08-28 20:24:25.665,,,,,,,,,,,,,,,,,,,,,,,,,,,,,,,,,,,,,,/muse/elements/jaw_clench
2023-08-28 20:24:26.638,0.2925687355791683,0.5281144818551294,0.6622055502022191,1.026348218536901,0.1500938838306857,0.7924643812302019,0.02992136761237768,0.8527510798361869,0.570411138283196,0.3036220124733886,0.2756499035245215,1.027272194692052,1.093851288421718,1.14309875753437,1.118168790375528,1.085371679189711,1.298908288060737,1.220539546745026,0.6062465096726048,0.9939024214526777,1220.476190476191,805.8608058608058,792.967032967033,762.3443223443223,580.2197802197802,-0.629211,0.169189,0.745911,1.712189,-4.336548,-0.800018,1,4,1,1,2,45.000000
2023-08-28 20:24:27.638,0.2925687355791683,0.5281144818551294,0.3741268838637812,1.026348218536901,0.1500938838306857,0.7924643812302019,0.2425201301772491,0.8527510798361869,0.570411138283196,0.3036220124733886,0.1808011862957952,1.027272194692052,1.093851288421718,1.14309875753437,1.192611809521629,1.085371679189711,1.298908288060737,1.220539546745026,0.9660235335713141,0.9939024214526777,861.8681318681319,803.4432234432235,804.2490842490843,736.959706959707,566.5201465201466,-0.613831,0.171936,0.757446,1.039276,-2.923431,0.284119,1,4,1,1,2,45.000000
2023-08-28 20:24:28.638,0.2925687355791683,0.1752785041558644,0.4753913885293898,1.026348218536901,0.1500938838306857,0.1546317283424144,0.06116793068701314,0.8527510798361869,0.570411138283196,0.8024162587396243,0.272636529761378,1.027272194692052,1.093851288421718,1.304014637831574,1.206554281833778,1.085371679189711,1.298908288060737,1.127167998672044,0.9764692061953063,0.9939024214526777,1106.849816849817,793.3699633699634,786.1172161172161,770.8058608058608,537.5091575091575,-0.609924,0.166382,0.751953,-0.291595,-3.446808,2.370148,1,4,1,1,2,45.000000
2023-08-28 20:24:29.637,0.2925687355791683,0.3038809239576784,0.4165412000853971,1.270381625833654,0.1500938838306857,0.116355175793103,0.1560212764836332,0.6475299994814753,0.570411138283196,0.7571824965959673,0.3355927787580819,0.9564256126351462,1.093851288421718,1.383571493752178,1.023781066131066,1.255731073261275,1.298908288060737,1.178276413206836,0.9962561564909873,0.927663092875194,775.6410256410256,802.6373626373627,812.3076923076924,773.6263736263736,621.3186813186813,-0.619507,0.165710,0.764343,2.250519,-3.401947,-1.525269,1,4,1,1,1,45.000000
2023-08-28 20:24:29.658,,,,,,,,,,,,,,,,,,,,,,,,,,,,,,,,,,,,,,/muse/elements/blink
2023-08-28 20:24:30.638,0.2925687355791683,-0.03133359817053302,0.4165412000853971,1.270381625833654,0.1500938838306857,0.785590812380012,0.1560212764836332,0.6475299994814753,0.570411138283196,0.8294624138878585,0.3355927787580819,0.9564256126351462,1.093851288421718,1.334502596680831,1.023781066131066,1.255731073261275,1.298908288060737,1.013904434039693,0.9962561564909873,0.927663092875194,787.3260073260074,780.8791208791209,789.7435897435897,800.6227106227107,520.1831501831502,-0.604980,0.162170,0.767639,2.287903,-4.388885,-1.099091,1,4,1,1,1,45.000000
2023-08-28 20:24:31.638,0.2925687355791683,0.3187377316346262,0.6533795821287622,1.270381625833654,0.1500938838306857,0.5310513944333148,0.2100217607425419,0.6475299994814753,0.570411138283196,0.8761379092689738,0.6357195823448188,0.9564256126351462,1.093851288421718,1.209757371073301,1.030338949060554,1.255731073261275,1.298908288060737,0.8992633644139226,0.8260488530182098,0.927663092875194,715.6043956043957,800.6227106227107,813.919413919414,788.9377289377289,793.3699633699634,-0.608093,0.157349,0.767151,1.757050,-3.723450,-1.009369,1,2,1,1,2,45.000000
2023-08-28 20:24:32.637,0.2925687355791683,0.1336005580443887,0.5803944618788733,0.9638346453713595,0.1500938838306857,0.1307853286103804,0.4129431159528825,0.6049947083812228,0.570411138283196,0.8263598083956512,0.7727050490357215,0.8721563006937976,1.093851288421718,1.197563924830878,1.012514136201671,1.060835897804092,1.298908288060737,0.9124434751382247,0.9052748472434782,0.8805911058905391,641.0622710622711,800.2197802197802,798.6080586080586,774.0293040293041,794.981684981685,-0.600525,0.166260,0.770020,4.919739,-4.919739,-4.964600,1,2,1,1,1,45.000000
2023-08-28 20:24:33.362,,,,,,,,,,,,,,,,,,,,,,,,,,,,,,,,,,,,,,/muse/elements/blink
2023-08-28 20:24:33.640,0.2925687355791683,0.0476877127009847,0.515465730632658,1.071690003961389,0.1500938838306857,0.3670730471733502,0.5007336069070285,0.6594773114014824,0.570411138283196,0.7268207843647773,0.7395421375114715,0.9909076070279181,1.093851288421718,1.245325816585783,0.9252196277538709,1.056778538757227,1.298908288060737,0.9747391658401242,1.009925369260535,0.8744093830889815,967.4358974358975,749.4505494505495,799.4139194139194,898.9377289377289,960.989010989011,-0.694824,0.172241,0.692078,0.291595,0.874786,2.056122,1,2,1,1,1,45.000000
2023-08-28 20:24:34.637,0.2925687355791683,0.1662195598916889,0.690677315978851,1.197710367884328,0.1500938838306857,0.4666767615675322,0.277859343655181,0.7190465827559774,0.570411138283196,0.7195076532324989,0.5022690079251132,0.9828179196578225,1.093851288421718,1.155531078380573,0.9703863697411916,1.072973270376333,1.298908288060737,1.04079319272309,1.043028541173503,0.9082993213193054,996.4468864468864,801.4285714285714,822.3809523809524,790.952380952381,861.8681318681319,-0.660278,0.185486,0.716431,-0.792542,-3.745880,1.308441,1,2,1,1,1,45.000000
2023-08-28 20:24:35.301,,,,,,,,,,,,,,,,,,,,,,,,,,,,,,,,,,,,,,/muse/elements/blink
2023-08-28 20:24:35.609,,,,,,,,,,,,,,,,,,,,,,,,,,,,,,,,,,,,,,/muse/elements/blink
2023-08-28 20:24:35.639,0.2925687355791683,-0.07420226043669813,0.690677315978851,1.197710367884328,0.1500938838306857,0.03010415841916919,0.277859343655181,0.7190465827559774,0.570411138283196,0.3902082542123991,0.5022690079251132,0.9828179196578225,1.093851288421718,1.295873050730659,0.9703863697411916,1.072973270376333,1.298908288060737,1.567351297961076,1.043028541173503,0.9082993213193054,870.7326007326008,802.2344322344322,799.0109890109891,810.6959706959707,969.8534798534798,-0.642395,0.180420,0.730347,1.816864,-4.134674,-0.358887,1,2,1,1,2,45.000000
2023-08-28 20:24:36.049,,,,,,,,,,,,,,,,,,,,,,,,,,,,,,,,,,,,,,/muse/elements/blink
2023-08-28 20:24:36.638,0.2925687355791683,-0.07420226043669813,0.8785356147418653,1.197710367884328,0.1500938838306857,0.03010415841916919,0.6982469760297867,0.7190465827559774,0.570411138283196,0.3902082542123991,0.8180896953987018,0.9828179196578225,1.093851288421718,1.295873050730659,1.200923230959017,1.072973270376333,1.298908288060737,1.567351297961076,0.9869816271131979,0.9082993213193054,1006.520146520147,795.7875457875458,775.2380952380953,819.1575091575091,994.0293040293041,-0.640869,0.178345,0.735718,2.803802,-4.082336,-1.510315,1,2,1,1,2,45.000000
2023-08-28 20:24:37.637,0.2925687355791683,0.1399818184085265,0.5835170653703842,1.197710367884328,0.1500938838306857,0.2110441910188166,0.2917927439807176,0.7190465827559774,0.570411138283196,0.9522932071485434,0.7889666848785523,0.9828179196578225,1.093851288421718,1.252432490396215,1.133178412086222,1.072973270376333,1.298908288060737,1.074753401139617,0.8688584214910056,0.9082993213193054,653.5531135531136,809.8901098901099,800.6227106227107,794.1758241758242,744.2124542124542,-0.628174,0.175537,0.744019,3.237457,-4.725342,-2.557068,1,2,1,1,2,45.000000
2023-08-28 20:24:37.944,,,,,,,,,,,,,,,,,,,,,,,,,,,,,,,,,,,,,,/muse/elements/blink
2023-08-28 20:24:38.638,0.2925687355791683,-0.09843187849407788,0.6348438323016035,1.197710367884328,0.1500938838306857,0.07993678785197252,0.6200945276828008,0.7190465827559774,0.570411138283196,0.8210294826352085,0.653716210296348,0.9828179196578225,1.093851288421718,1.304844547036679,1.194778817237509,1.072973270376333,1.298908288060737,1.23289953483902,0.8727334798116174,0.9082993213193054,730.1098901098901,825.6043956043957,791.3553113553114,776.8498168498169,850.1831501831502,-0.629150,0.169495,0.749817,4.366455,-3.192596,-4.471130,1,2,1,1,2,45.000000
2023-08-28 20:24:39.638,0.2925687355791683,-0.07693653801135703,0.8617804025136746,1.197710367884328,0.1500938838306857,0.15517845630797,0.7388417734406484,0.7190465827559774,0.570411138283196,1.018668743203099,0.6294345117275497,0.9828179196578225,1.093851288421718,1.305035659859217,1.074538554894938,1.072973270376333,1.298908288060737,1.079477368844244,0.8278662155169687,0.9082993213193054,880.4029304029305,811.9047619047619,803.4432234432235,819.1575091575091,876.7765567765568,-0.624634,0.167908,0.755859,1.151428,-4.740295,-1.203766,1,2,1,1,2,40.000000
2023-08-28 20:24:40.577,,,,,,,,,,,,,,,,,,,,,,,,,,,,,,,,,,,,,,/muse/elements/blink
2023-08-28 20:24:40.638,0.2925687355791683,0.1627531675988333,0.6165240845997911,1.197710367884328,0.1500938838306857,0.3283344676230406,0.4261436671690947,0.7190465827559774,0.570411138283196,0.8946612064262249,0.6912361202951955,0.9828179196578225,1.093851288421718,1.100531086034657,1.03558827477442,1.072973270376333,1.298908288060737,0.9286630346709072,0.7741935223932717,0.9082993213193054,859.4505494505495,778.8644688644689,798.2051282051282,793.3699633699634,539.5238095238095,-0.597351,0.163574,0.777832,-2.041168,-3.155212,5.009460,1,2,1,1,2,40.000000
2023-08-28 20:24:41.522,,,,,,,,,,,,,,,,,,,,,,,,,,,,,,,,,,,,,,/muse/elements/blink
2023-08-28 20:24:41.611,,,,,,,,,,,,,,,,,,,,,,,,,,,,,,,,,,,,,,/muse/elements/jaw_clench
2023-08-28 20:24:41.637,0.2925687355791683,0.3772953092948706,0.3944495421441616,1.197710367884328,0.1500938838306857,0.4012102959365369,0.48062809148194,0.7190465827559774,0.570411138283196,0.4574261309642297,0.6298906594492319,0.9828179196578225,1.093851288421718,1.094900896395318,1.079067050661099,1.072973270376333,1.298908288060737,1.057926264899302,0.7308458208411416,0.9082993213193054,674.5054945054945,794.981684981685,837.6923076923077,911.0256410256411,719.2307692307693,-0.609985,0.154846,0.765442,-0.029907,0.814972,3.043060,1,2,1,1,2,40.000000
2023-08-28 20:24:41.788,,,,,,,,,,,,,,,,,,,,,,,,,,,,,,,,,,,,,,/muse/elements/blink
2023-08-28 20:24:42.139,,,,,,,,,,,,,,,,,,,,,,,,,,,,,,,,,,,,,,/muse/elements/blink
2023-08-28 20:24:42.638,0.2925687355791683,-0.6758304545942795,0.3694627596407645,1.197710367884328,0.1500938838306857,-0.3937646075828039,0.5722754280240681,0.7190465827559774,0.570411138283196,0.5619833378861077,0.564099380033825,0.9828179196578225,1.093851288421718,1.29428053296404,1.098517224865833,1.072973270376333,1.298908288060737,1.270871120059976,0.7304188364524796,0.9082993213193054,795.3846153846154,774.8351648351648,775.6410256410256,801.4285714285714,853.0036630036631,-0.626221,0.169128,0.749756,4.844971,-5.203857,-6.071167,1,2,1,1,2,40.000000
2023-08-28 20:24:42.734,,,,,,,,,,,,,,,,,,,,,,,,,,,,,,,,,,,,,,/muse/elements/blink
2023-08-28 20:24:43.521,,,,,,,,,,,,,,,,,,,,,,,,,,,,,,,,,,,,,,/muse/elements/blink
2023-08-28 20:24:43.642,0.2925687355791683,-0.6450024333863338,0.956832886469261,1.197710367884328,0.1500938838306857,-0.3974554015565984,0.4097798824608688,0.7190465827559774,0.570411138283196,0.4295503261321342,0.4845071517003137,0.9828179196578225,1.093851288421718,1.30731838783705,1.065652653014128,1.072973270376333,1.298908288060737,1.382318556442597,0.6336685019179963,0.9082993213193054,835.2747252747253,797.3992673992674,793.3699633699634,741.7948717948718,442.8205128205128,-0.608215,0.162659,0.764709,2.415009,-3.170166,-0.747681,1,2,1,1,2,40.000000
2023-08-28 20:24:44.638,0.2925687355791683,-0.6450024333863338,0.9446827694804271,1.197710367884328,0.1500938838306857,-0.3974554015565984,0.5861310483269698,0.7190465827559774,0.570411138283196,0.4295503261321342,0.6094955477741016,0.9828179196578225,1.093851288421718,1.30731838783705,1.160068190673883,1.072973270376333,1.298908288060737,1.382318556442597,0.7430210558661081,0.9082993213193054,686.1904761904763,832.8571428571429,781.2820512820513,752.2710622710623,542.7472527472528,-0.606140,0.158081,0.765198,1.749573,-3.872986,-0.127106,1,2,1,1,2,40.000000
2023-08-28 20:24:45.021,,,,,,,,,,,,,,,,,,,,,,,,,,,,,,,,,,,,,,/muse/elements/blink
2023-08-28 20:24:45.460,,,,,,,,,,,,,,,,,,,,,,,,,,,,,,,,,,,,,,/muse/elements/blink
2023-08-28 20:24:45.651,0.2925687355791683,0.5322348009671161,0.7136114154886477,1.197710367884328,0.1500938838306857,0.5121518560856331,0.7590338657778964,0.7190465827559774,0.570411138283196,0.6620450508003853,0.6454990137099968,0.9828179196578225,1.093851288421718,1.07733743744112,1.083354631402482,1.072973270376333,1.298908288060737,0.9033110039194922,1.013522877824773,0.9082993213193054,826.007326007326,766.3736263736264,817.1428571428571,783.2967032967033,512.5274725274726,-0.617004,0.155823,0.763611,1.614990,-2.714081,0.328979,1,2,1,1,2,40.000000
2023-08-28 20:24:46.638,0.2925687355791683,0.5643952169154285,0.6077458732533331,1.197710367884328,0.1500938838306857,0.5490812872868379,0.5604882852675621,0.7190465827559774,0.570411138283196,0.5803071747627548,0.6304965941763667,0.9828179196578225,1.093851288421718,1.07875912716931,1.137832906684769,1.072973270376333,1.298908288060737,0.8906288708882308,0.9473108259737874,0.9082993213193054,797.3992673992674,796.5934065934066,801.4285714285714,761.5384615384615,619.7069597069598,-0.606201,0.154419,0.766907,1.719666,-3.603821,-0.276642,1,2,1,1,2,40.000000
2023-08-28 20:24:46.673,,,,,,,,,,,,,,,,,,,,,,,,,,,,,,,,,,,,,,/muse/elements/blink
2023-08-28 20:24:47.637,0.2925687355791683,0.5643952169154285,0.4678810059351738,1.197710367884328,0.1500938838306857,0.5490812872868379,0.6379005931053031,0.7190465827559774,0.570411138283196,0.5803071747627548,0.263363424392263,0.9828179196578225,1.093851288421718,1.07875912716931,1.280780462448849,1.072973270376333,1.298908288060737,0.8906288708882308,0.8068960653055678,0.9082993213193054,736.959706959707,793.7728937728938,788.9377289377289,798.6080586080586,705.934065934066,-0.616699,0.157288,0.770996,1.824341,-3.304749,-0.314026,1,2,1,1,2,40.000000
2023-08-28 20:24:48.638,0.2925687355791683,-0.01698348383394036,0.9596979633292203,0.5579932050251935,0.1500938838306857,0.5564370619440279,0.556582249632214,0.8662838273163737,0.570411138283196,0.391777330813303,0.1495333680425618,0.5559633069318957,1.093851288421718,1.285672308764961,1.104590506630789,1.256865715728923,1.298908288060737,1.027513535614639,0.8679352090867314,0.723834749165129,625.3479853479854,809.4871794871796,790.5494505494506,823.992673992674,1039.56043956044,-0.604431,0.153992,0.772034,1.973877,-4.127197,-0.628052,1,2,1,1,2,40.000000
2023-08-28 20:24:49.637,0.2925687355791683,0.2196177757200443,0.5220502654515086,0.5124426583762673,0.1500938838306857,0.390143421372764,0.3189958054326889,1.011101861258503,0.570411138283196,0.718224199224518,0.5713769454828287,0.8361804234564928,1.093851288421718,1.110013764386473,1.062108883654296,1.223672229300506,1.298908288060737,1.034268333118115,0.8472577525310924,0.8779618139414613,1220.07326007326,780.0732600732601,804.6520146520147,804.6520146520147,942.4542124542124,-0.603210,0.155762,0.789551,1.622467,-2.878571,-1.682281,1,2,1,1,1,35.000000
2023-08-28 20:24:50.049,,,,,,,,,,,,,,,,,,,,,,,,,,,,,,,,,,,,,,/muse/elements/blink
2023-08-28 20:24:50.638,0.2925687355791683,0.299403536303693,0.4399649293784358,0.263427298588668,0.1500938838306857,0.3955028519261999,0.27705256775392,0.9450051462075588,0.570411138283196,0.6323886604916323,0.5976044278209309,0.7217565058376133,1.093851288421718,1.101373412892831,1.181409427595683,1.189481171164211,1.298908288060737,0.9679165013508734,0.766247271533868,0.9350933406931857,838.901098901099,810.2930402930403,807.4725274725275,800.2197802197802,982.7472527472528,-0.594666,0.131042,0.780457,5.316010,-1.293488,-3.431854,1,2,1,1,1,35.000000
2023-08-28 20:24:50.837,,,,,,,,,,,,,,,,,,,,,,,,,,,,,,,,,,,,,,/muse/elements/blink
2023-08-28 20:24:50.926,,,,,,,,,,,,,,,,,,,,,,,,,,,,,,,,,,,,,,/muse/elements/jaw_clench
2023-08-28 20:24:51.127,,,,,,,,,,,,,,,,,,,,,,,,,,,,,,,,,,,,,,/muse/elements/blink
2023-08-28 20:24:51.438,,,,,,,,,,,,,,,,,,,,,,,,,,,,,,,,,,,,,,/muse/elements/jaw_clench
2023-08-28 20:24:51.648,0.2925687355791683,0.2400156243597683,0.5918444392528563,0.2397779627376674,0.1500938838306857,0.3456133044813766,0.5000813022178665,0.6064854463236951,0.570411138283196,0.5058114955452502,0.6676968798847631,0.3631093378114055,1.093851288421718,1.120913541173027,1.226353783749718,1.257755774899007,1.298908288060737,1.044495297698294,0.7950374460666364,0.8034625474761665,664.8351648351648,863.0769230769231,830.0366300366301,871.1355311355312,910.2197802197802,-0.607483,0.142944,0.765076,-3.177643,-5.196381,2.190704,1,4,1,1,1,35.000000
2023-08-28 20:24:51.877,,,,,,,,,,,,,,,,,,,,,,,,,,,,,,,,,,,,,,/muse/elements/jaw_clench
2023-08-28 20:24:52.637,0.2925687355791683,0.2400156243597683,0.6346887348906334,0.2397779627376674,0.1500938838306857,0.3456133044813766,0.5901223711261876,0.6064854463236951,0.570411138283196,0.5058114955452502,0.5237567988331558,0.3631093378114055,1.093851288421718,1.120913541173027,1.143520030372693,1.257755774899007,1.298908288060737,1.044495297698294,0.7329975492579489,0.8034625474761665,869.92673992674,756.7032967032967,795.3846153846154,809.4871794871796,904.1758241758242,-0.600342,0.150757,0.773438,1.532745,-3.865509,0.224304,1,2,4,1,2,35.000000
2023-08-28 20:24:53.643,0.2925687355791683,0.2400156243597683,0.379872910813738,0.2397779627376674,0.1500938838306857,0.3456133044813766,0.665351637306699,0.6064854463236951,0.570411138283196,0.5058114955452502,0.5250425487206782,0.3631093378114055,1.093851288421718,1.120913541173027,1.337626121649745,1.257755774899007,1.298908288060737,1.044495297698294,0.9924608518501842,0.8034625474761665,929.96336996337,801.4285714285714,804.6520146520147,795.3846153846154,935.6043956043957,-0.606323,0.151733,0.773621,1.622467,-3.102875,-0.650482,1,2,4,1,2,35.000000
2023-08-28 20:24:54.639,0.2925687355791683,0.2400156243597683,0.3587050807624129,0.8006697545952101,0.1500938838306857,0.3456133044813766,0.3289620538988215,0.6729970395415923,0.570411138283196,0.5058114955452502,0.536218168342703,0.7648933052744258,1.093851288421718,1.120913541173027,1.219373281952916,1.248089461352684,1.298908288060737,1.044495297698294,0.843093156924463,1.038178269480641,813.919413919414,812.7106227106227,796.996336996337,792.1611721611722,833.6630036630037,-0.598022,0.150940,0.781982,1.951447,-3.895416,-0.014954,1,2,1,1,1,35.000000
2023-08-28 20:24:55.645,0.2925687355791683,0.2400156243597683,0.2940147243871283,0.8309203749561023,0.1500938838306857,0.3456133044813766,0.2053749854352938,0.6349861987343801,0.570411138283196,0.5058114955452502,0.8221118283556278,0.7611242607053428,1.093851288421718,1.120913541173027,1.130852334694726,1.084641079854985,1.298908288060737,1.044495297698294,0.7482557217124659,0.9924090190777539,755.0915750915751,795.7875457875458,812.7106227106227,782.893772893773,570.1465201465202,-0.597168,0.151001,0.779663,1.973877,-3.297272,-0.934601,1,2,1,1,1,35.000000
2023-08-28 20:24:56.637,0.2925687355791683,0.2400156243597683,0.2504845964519642,0.8064527739235974,0.1500938838306857,0.3456133044813766,0.2803472898472967,0.6684058405918533,0.570411138283196,0.5058114955452502,0.8526163039748242,0.7951103256399186,1.093851288421718,1.120913541173027,0.9424368812917127,1.20794998746699,1.298908288060737,1.044495297698294,0.7489565262870103,1.03730821156031,1040.3663003663,787.7289377289378,789.7435897435897,757.9120879120879,632.6007326007326,-0.592712,0.145630,0.778564,1.659851,-3.050537,-1.128998,1,2,1,1,1,35.000000
2023-08-28 20:24:57.644,0.2925687355791683,1.011803100262935,0.24018637731761,0.8043715591386565,0.1500938838306857,1.397359826122205,0.1826554713176287,0.7687244612422921,0.570411138283196,1.381972675985962,0.6756533092115252,1.005238699753529,1.093851288421718,1.232631759711072,1.018644354166011,1.287170888619367,1.298908288060737,1.055783151421522,0.776472887206614,0.8638932373321775,816.7399267399268,785.7142857142858,810.2930402930403,747.8388278388279,637.8388278388279,-0.591919,0.144226,0.777710,1.106567,-3.581390,-0.403748,1,2,1,1,1,35.000000
2023-08-28 20:24:58.637,0.2925687355791683,1.110551122580593,0.2944646160922716,0.7710681200104081,0.1500938838306857,1.499859800998803,0.5367998221502436,0.7857616558194283,0.570411138283196,1.380769282192772,0.4770676276518953,0.9179906585216396,1.093851288421718,1.276126185998101,1.153556285118256,1.221979345536403,1.298908288060737,1.000779778365842,0.7472248687025986,0.9056353485668436,585.4578754578755,817.1428571428571,798.2051282051282,744.2124542124542,663.6263736263736,-0.594299,0.148926,0.788208,2.205658,-2.923431,-0.149536,1,4,4,1,1,35.000000
2023-08-28 20:24:59.285,,,,,,,,,,,,,,,,,,,,,,,,,,,,,,,,,,,,,,/muse/elements/jaw_clench
2023-08-28 20:24:59.484,,,,,,,,,,,,,,,,,,,,,,,,,,,,,,,,,,,,,,/muse/elements/blink
2023-08-28 20:24:59.637,0.2925687355791683,1.1847895907456,0.4689833335029372,0.7460823931828882,0.1500938838306857,1.567821767526122,0.6379418110538762,0.8010406053342012,0.570411138283196,1.380769282192772,0.41286601028338,0.3958690866840038,1.093851288421718,1.275119790594589,0.9954707372566824,1.142690256712893,1.298908288060737,1.009882174765621,0.7578299710787514,0.9268043233214892,808.2783882783883,798.6080586080586,782.893772893773,811.0989010989011,698.6813186813187,-0.708801,0.159912,0.684814,6.407623,-7.566528,-7.454376,1,2,1,1,1,35.000000
2023-08-28 20:25:00.637,0.2925687355791683,1.1847895907456,0.5136442362358573,0.7998170993104909,0.1500938838306857,1.567821767526122,0.4976663296229578,0.7768902684986129,0.570411138283196,1.380769282192772,0.5107346566618359,0.2535534068843708,1.093851288421718,1.275119790594589,1.13086785087943,1.14701998428973,1.298908288060737,1.009882174765621,0.7721657869928761,0.9131995232794452,793.3699633699634,734.1391941391942,795.3846153846154,786.1172161172161,743.0036630036631,-0.671387,0.153320,0.717285,-0.971985,-3.648682,2.003784,1,2,1,1,1,40.000000
2023-08-28 20:25:01.641,0.2925687355791683,1.1847895907456,0.5136442362358573,0.7998170993104909,0.1500938838306857,1.567821767526122,0.4976663296229578,0.7768902684986129,0.570411138283196,1.380769282192772,0.5107346566618359,0.2535534068843708,1.093851288421718,1.275119790594589,1.13086785087943,1.14701998428973,1.298908288060737,1.009882174765621,0.7721657869928761,0.9131995232794452,682.1611721611722,758.7179487179487,795.7875457875458,766.7765567765568,794.5787545787546,-0.643616,0.132080,0.740784,2.115936,-4.097290,-1.742096,1,2,1,1,2,40.000000
2023-08-28 20:25:02.637,0.2925687355791683,1.1847895907456,0.5656106742560226,0.7998170993104909,0.1500938838306857,1.567821767526122,0.3181468658650014,0.7768902684986129,0.570411138283196,1.380769282192772,0.2501873257743689,0.2535534068843708,1.093851288421718,1.275119790594589,1.089604297433596,1.14701998428973,1.298908288060737,1.009882174765621,0.8095945607171862,0.9131995232794452,638.2417582417582,740.1831501831502,786.9230769230769,763.5531135531136,714.3956043956044,-0.641541,0.133423,0.747681,2.168274,-3.102875,0.097198,1,4,1,1,2,40.000000
2023-08-28 20:25:03.640,0.2925687355791683,1.1847895907456,0.4063630784220773,0.5425685260782596,0.1500938838306857,1.567821767526122,0.2744350308429861,0.3290026872535678,0.570411138283196,1.380769282192772,0.5726750229542722,0.6922071883569912,1.093851288421718,1.275119790594589,1.111710315646964,1.259315442988464,1.298908288060737,1.009882174765621,0.9036118772649118,0.8150913793542122,1023.443223443223,790.1465201465202,802.6373626373627,818.7545787545788,937.6190476190476,-0.638367,0.134888,0.750061,2.437439,-3.192596,-0.949554,1,2,4,1,1,40.000000
2023-08-28 20:25:04.049,,,,,,,,,,,,,,,,,,,,,,,,,,,,,,,,,,,,,,/muse/elements/jaw_clench
2023-08-28 20:25:04.534,,,,,,,,,,,,,,,,,,,,,,,,,,,,,,,,,,,,,,/muse/elements/blink
2023-08-28 20:25:04.637,0.2925687355791683,1.1847895907456,0.3020314071679992,0.6940585349534655,0.1500938838306857,1.567821767526122,0.2835265659274818,0.2609592257940889,0.570411138283196,1.380769282192772,0.5699329209406621,0.3119388031726793,1.093851288421718,1.275119790594589,1.137012303003512,1.268400704300168,1.298908288060737,1.009882174765621,0.922451701399145,0.7067179665649409,978.7179487179487,800.2197802197802,803.4432234432235,866.3003663003664,909.0109890109891,-0.634155,0.134521,0.752686,1.809387,-3.454285,-1.143951,1,2,1,1,1,40.000000
2023-08-28 20:25:04.951,,,,,,,,,,,,,,,,,,,,,,,,,,,,,,,,,,,,,,/muse/elements/jaw_clench
2023-08-28 20:25:05.636,0.2925687355791683,1.1847895907456,0.04565917675204406,0.6940585349534655,0.1500938838306857,1.567821767526122,0.3517613101792847,0.2609592257940889,0.570411138283196,1.380769282192772,0.5780919317744827,0.3119388031726793,1.093851288421718,1.275119790594589,1.105914922770423,1.268400704300168,1.298908288060737,1.009882174765621,0.8850834738422438,0.7067179665649409,538.3150183150183,831.6483516483516,805.4578754578755,821.1721611721612,997.6556776556777,-0.629333,0.138916,0.754456,1.353302,-4.284210,0.321503,1,4,1,1,1,40.000000
2023-08-28 20:25:05.986,,,,,,,,,,,,,,,,,,,,,,,,,,,,,,,,,,,,,,/muse/elements/jaw_clench
2023-08-28 20:25:06.164,,,,,,,,,,,,,,,,,,,,,,,,,,,,,,,,,,,,,,/muse/elements/jaw_clench
2023-08-28 20:25:06.363,,,,,,,,,,,,,,,,,,,,,,,,,,,,,,,,,,,,,,/muse/elements/jaw_clench
2023-08-28 20:25:06.636,0.2925687355791683,1.1847895907456,-0.2408678225996717,0.4168567251191477,0.1500938838306857,1.567821767526122,0.3566137291773026,0.8021870696610678,0.570411138283196,1.380769282192772,0.6846969324935236,1.068939859246142,1.093851288421718,1.275119790594589,1.044788137920558,1.152405953247251,1.298908288060737,1.009882174765621,0.7759696288293125,0.718656395412346,721.6483516483516,707.5457875457876,792.1611721611722,826.007326007326,888.4615384615385,-0.622375,0.130310,0.763245,1.652374,-3.506622,-0.942078,1,4,1,1,1,40.000000
2023-08-28 20:25:07.636,0.2925687355791683,1.1847895907456,-0.04546186044085546,0.4132648734252803,0.1500938838306857,1.567821767526122,0.2292946664738617,0.6877522580681572,0.570411138283196,1.380769282192772,0.6725702556434139,1.021411135615839,1.093851288421718,1.275119790594589,0.9725502939937987,1.227260778092823,1.298908288060737,1.009882174765621,0.8876197201827624,0.6904510972386997,482.3076923076923,782.893772893773,808.6813186813187,789.7435897435897,952.5274725274726,-0.616394,0.129211,0.762268,1.764526,-3.312225,-0.246735,1,4,1,1,1,40.000000
2023-08-28 20:25:08.637,0.2925687355791683,1.1847895907456,0.01062669261003513,0.5326372033112974,0.1500938838306857,1.567821767526122,0.3156701016383783,0.7262880825869007,0.570411138283196,1.380769282192772,0.3457330637866357,0.9618949282957362,1.093851288421718,1.275119790594589,0.9082279908871236,1.272161760005913,1.298908288060737,1.009882174765621,0.7537523437745252,0.8034129843892287,793.3699633699634,790.1465201465202,775.6410256410256,808.2783882783883,985.1648351648352,-0.606384,0.136475,0.777527,-0.179443,-3.446808,4.149628,1,4,1,1,1,40.000000
2023-08-28 20:25:09.643,0.2925687355791683,1.1847895907456,0.2558809880478835,0.6063757795705703,0.1500938838306857,1.567821767526122,0.3766012620586355,0.6483095371010785,0.570411138283196,1.380769282192772,0.1421593869316722,0.8028460543091877,1.093851288421718,1.275119790594589,1.007807319041977,1.348896524128763,1.298908288060737,1.009882174765621,0.6613654812184687,0.8611464640321271,1046.410256410256,793.7728937728938,813.1135531135532,803.040293040293,675.3113553113553,-0.603577,0.128296,0.772156,-0.037384,-4.426270,0.702820,1,4,1,1,1,40.000000
2023-08-28 20:25:10.637,0.2925687355791683,1.1847895907456,0.07161319542983781,0.5506698571897751,0.1500938838306857,1.567821767526122,0.2620368274331011,0.5241722559267581,0.570411138283196,1.380769282192772,0.4086575401525392,0.7338061584766425,1.093851288421718,1.275119790594589,0.9853394908727738,1.372345417726274,1.298908288060737,1.009882174765621,0.7864969830508747,0.7147083305906844,910.2197802197802,811.0989010989011,770,779.2673992673992,573.3699633699634,-0.590149,0.139465,0.790710,6.302948,-4.725342,-7.828217,1,4,1,1,1,40.000000
2023-08-28 20:25:10.747,,,,,,,,,,,,,,,,,,,,,,,,,,,,,,,,,,,,,,/muse/elements/jaw_clench
2023-08-28 20:25:11.637,0.2925687355791683,1.1847895907456,0.07295254080155598,0.5506698571897751,0.1500938838306857,1.567821767526122,0.2797769538084864,0.5241722559267581,0.570411138283196,1.380769282192772,0.3210355539445481,0.7338061584766425,1.093851288421718,1.275119790594589,0.9750749474129989,1.372345417726274,1.298908288060737,1.009882174765621,0.7144691123617265,0.7147083305906844,1442.087912087912,782.0879120879121,797.3992673992674,776.4468864468864,662.8205128205128,-0.582458,0.141296,0.790222,0.942078,-4.112244,1.136475,1,4,1,1,2,40.000000
2023-08-28 20:25:12.641,0.2925687355791683,1.1847895907456,0.4185615984546718,0.8265838512743475,0.1500938838306857,1.567821767526122,0.2226535032883994,0.5126044707633222,0.570411138283196,1.380769282192772,0.2276090672884273,0.6805828532627806,1.093851288421718,1.275119790594589,1.072520519074024,1.017212367897228,1.298908288060737,1.009882174765621,0.7210346445647172,0.865575757753445,27.3992673992674,790.1465201465202,826.007326007326,749.8534798534798,506.4835164835165,-0.580261,0.129761,0.787109,-0.284119,-3.072968,2.452393,1,4,1,1,1,40.000000
2023-08-28 20:25:13.562,,,,,,,,,,,,,,,,,,,,,,,,,,,,,,,,,,,,,,/muse/elements/jaw_clench
2023-08-28 20:25:13.636,0.2925687355791683,1.1847895907456,0.4285641067027744,0.7673181214937022,0.1500938838306857,1.567821767526122,0.2992484871919611,0.3657593464821312,0.570411138283196,1.380769282192772,0.3413408407279399,0.5922710005011663,1.093851288421718,1.275119790594589,1.186541352800839,1.063295294795852,1.298908288060737,1.009882174765621,0.8154275846194383,0.7728073205414915,0,852.6007326007326,812.3076923076924,816.7399267399268,545.9706959706959,-0.589417,0.130005,0.784058,2.482300,-2.003784,0.104675,1,4,1,1,1,40.000000
2023-08-28 20:25:13.672,,,,,,,,,,,,,,,,,,,,,,,,,,,,,,,,,,,,,,/muse/elements/blink
2023-08-28 20:25:13.803,,,,,,,,,,,,,,,,,,,,,,,,,,,,,,,,,,,,,,/muse/elements/jaw_clench
2023-08-28 20:25:14.421,,,,,,,,,,,,,,,,,,,,,,,,,,,,,,,,,,,,,,/muse/elements/jaw_clench
2023-08-28 20:25:14.637,0.2925687355791683,1.1847895907456,0.5515988055387984,0.7673181214937022,0.1500938838306857,1.567821767526122,0.4146701085070141,0.3657593464821312,0.570411138283196,1.380769282192772,0.2588431293774282,0.5922710005011663,1.093851288421718,1.275119790594589,1.305904971856551,1.063295294795852,1.298908288060737,1.009882174765621,0.8921901343461919,0.7728073205414915,1510.989010989011,671.6849816849817,770.4029304029305,762.3443223443223,525.4212454212454,-0.582581,0.127258,0.789246,1.936493,-3.648682,-0.777588,1,4,1,1,1,40.000000
2023-08-28 20:25:15.655,0.2925687355791683,1.1847895907456,0.5118112303213146,0.6564129684612171,0.1500938838306857,1.567821767526122,0.1601284884358388,0.3919637574106252,0.570411138283196,1.380769282192772,0.6645853878789729,0.5513449779596403,1.093851288421718,1.275119790594589,1.048424533421193,0.9608026348495604,1.298908288060737,1.009882174765621,0.8948565287370788,0.6625309215849244,1363.919413919414,861.8681318681319,784.9084249084249,755.8974358974359,551.2087912087912,-0.582458,0.126770,0.789551,1.585083,-3.319702,-0.732727,1,1,1,1,1,40.000000
2023-08-28 20:25:16.641,0.2925687355791683,1.1847895907456,0.4228274855991332,0.7187170452286759,0.1500938838306857,1.567821767526122,0.1603129736127885,0.4557426676730145,0.570411138283196,1.380769282192772,0.6163226164714082,0.6982910243861259,1.093851288421718,1.275119790594589,0.9805798261902243,0.8541874456900229,1.298908288060737,1.009882174765621,0.7027734254385939,0.566161263767665,1148.754578754579,889.2673992673992,803.040293040293,740.5860805860806,636.2271062271062,-0.579163,0.133057,0.793335,2.407532,-3.229980,0.134583,1,1,1,1,1,40.000000
2023-08-28 20:25:17.230,,,,,,,,,,,,,,,,,,,,,,,,,,,,,,,,,,,,,,/muse/elements/blink
2023-08-28 20:25:17.640,0.2925687355791683,1.1847895907456,0.4791550944751571,0.6617499741070676,0.1500938838306857,1.567821767526122,0.4507777896167123,0.464490352408426,0.570411138283196,1.380769282192772,0.5626867701255558,0.6411879412657505,1.093851288421718,1.275119790594589,1.080011532622062,0.9265373418679811,1.298908288060737,1.009882174765621,0.7554468800445219,0.5927863198368382,1624.615384615385,788.1318681318681,786.9230769230769,780.4761904761905,855.4212454212454,-0.592224,0.136169,0.778320,1.981354,-3.364563,-1.256104,1,1,1,1,1,40.000000
2023-08-28 20:25:18.637,0.2925687355791683,1.1847895907456,0.5330184766705007,0.5443841066128362,0.1500938838306857,1.567821767526122,0.504838384184414,0.4874872802099177,0.570411138283196,1.380769282192772,0.5314074295377071,0.5552293949618212,1.093851288421718,1.275119790594589,1.075823586131123,0.9915672449510146,1.298908288060737,1.009882174765621,0.6908905100652933,0.638865682737595,0,782.0879120879121,784.5054945054945,757.1062271062272,532.2710622710623,-0.592285,0.132935,0.779297,1.076660,-3.760834,0.097198,1,4,2,1,1,40.000000
2023-08-28 20:25:19.636,0.2925687355791683,1.1847895907456,0.6509737839176326,0.6946901505363887,0.1500938838306857,1.567821767526122,0.4307310817758754,-0.1719275343186157,0.570411138283196,1.380769282192772,0.5294654806509431,0.5077475715288127,1.093851288421718,1.275119790594589,1.061374875717662,1.118882014882477,1.298908288060737,1.009882174765621,0.6881623307842674,0.6661353555418337,1237.399267399268,767.5824175824176,807.0695970695971,807.4725274725275,754.6886446886447,-0.584717,0.140381,0.791626,1.742096,-2.542114,0.904694,1,2,1,1,1,40.000000
2023-08-28 20:25:20.637,0.2925687355791683,1.1847895907456,0.4233837618586542,0.801645200885111,0.1500938838306857,1.567821767526122,-0.1472385486507978,0.5011720415718433,0.570411138283196,1.380769282192772,0.6209560229427975,0.7266642343113264,1.093851288421718,1.275119790594589,1.007262895489219,1.091405613971907,1.298908288060737,1.009882174765621,0.8904051172624622,0.753451047978416,1074.615384615385,817.5457875457876,803.4432234432235,749.4505494505495,751.0622710622711,-0.583313,0.136353,0.790588,2.549591,-3.715973,-1.016846,1,1,2,1,1,35.000000
2023-08-28 20:25:21.644,0.2925687355791683,1.1847895907456,0.4440279033991746,0.9797560498610426,0.1500938838306857,1.567821767526122,-0.1323506355171994,0.6299707047008936,0.570411138283196,1.380769282192772,0.5686297330768623,0.6137744387018251,1.093851288421718,1.275119790594589,1.056362854873827,0.9823508982012329,1.298908288060737,1.009882174765621,0.8311497673644468,0.7151653116676665,699.4871794871796,749.4505494505495,792.967032967033,790.952380952381,848.974358974359,-0.582092,0.138733,0.775757,2.280426,-1.779480,-0.740204,1,1,2,1,1,35.000000
2023-08-28 20:25:22.013,,,,,,,,,,,,,,,,,,,,,,,,,,,,,,,,,,,,,,/muse/elements/blink
2023-08-28 20:25:22.636,0.2925687355791683,1.1847895907456,0.3954419331747659,0.9797560498610426,0.1500938838306857,1.567821767526122,0.58264301104011,0.6299707047008936,0.570411138283196,1.380769282192772,0.6277060982011093,0.6137744387018251,1.093851288421718,1.275119790594589,1.076560570209389,0.9823508982012329,1.298908288060737,1.009882174765621,0.634914550916625,0.7151653116676665,1301.465201465202,725.6776556776557,804.2490842490843,824.3956043956044,938.021978021978,-0.762512,0.056458,0.639221,9.742279,-9.076843,-6.803894,1,2,2,1,1,35.000000
2023-08-28 20:25:23.637,0.2925687355791683,1.1847895907456,0.6791242007538519,0.9797560498610426,0.1500938838306857,1.567821767526122,0.5878652964065283,0.6299707047008936,0.570411138283196,1.380769282192772,0.6989959491145957,0.6137744387018251,1.093851288421718,1.275119790594589,0.8930223279100163,0.9823508982012329,1.298908288060737,1.009882174765621,0.7198115254138093,0.7151653116676665,1059.70695970696,813.1135531135532,801.8315018315019,785.7142857142858,978.3150183150184,-0.738525,0.088989,0.663818,0.246735,-3.828125,0.702820,1,2,2,1,2,35.000000
2023-08-28 20:25:24.200,,,,,,,,,,,,,,,,,,,,,,,,,,,,,,,,,,,,,,/muse/elements/blink
2023-08-28 20:25:24.385,,,,,,,,,,,,,,,,,,,,,,,,,,,,,,,,,,,,,,/muse/elements/blink
